%OpenBCI Raw EEG Data
%
%Sample Rate = 250.0 Hz
%First Column = SampleIndex
%Other Columns = EEG data in microvolts followed by Accel Data (in G) interleaved with Aux Data
0, 0.00, 0.00, 0.00, 0.00, 0.00, 0.00, 0.00, 0.00, -3813.03, -5014.86, -11079.96, 8963.81, -93750.01, -7470.62, -56063.79, 11173.95, -0.84, -0.40, 0.33
1, -3857.42, -7512.26, -93750.01, -93750.01, -6087.90, -3708.62, 15719.67, 7740.41, -3813.03, -5014.86, -11079.96, 8963.81, -93750.01, -7470.62, -56063.79, 11173.95, 0.00, 0.00, 0.00
2, -3857.42, -7512.26, -93750.01, -93750.01, -6087.90, -3708.62, 15719.67, 7740.41, -7227.44, -9327.92, -21306.93, 17848.47, -187500.02, -13785.33, -102281.22, 26633.38, 0.00, 0.00, 0.00
3, -7715.17, -15033.87, -187500.02, -187500.02, -12162.10, -7310.25, 31587.39, 15702.68, -7227.44, -9327.92, -21306.93, 17848.47, -187500.02, -13785.33, -102281.22, 26633.38, 0.00, 0.00, 0.00
4, -7715.17, -15033.87, -187500.02, -187500.02, -12162.10, -7310.25, 31587.39, 15702.68, -7205.11, -9341.89, -21364.67, 17819.35, -187500.02, -13824.24, -102253.04, 26661.47, 0.00, 0.00, 0.00
5, -7708.71, -15037.11, -187500.02, -187500.02, -12194.44, -7456.92, 31403.04, 15438.55, -7205.11, -9341.89, -21364.67, 17819.35, -187500.02, -13824.24, -102253.04, 26661.47, 0.00, 0.00, 0.00
6, -7708.71, -15037.11, -187500.02, -187500.02, -12194.44, -7456.92, 31403.04, 15438.55, -7223.90, -9326.42, -21319.72, 17793.60, -187500.02, -13822.54, -102325.55, 26557.78, 0.00, 0.00, 0.00
7, -7722.68, -15033.92, -187500.02, -187500.02, -12145.02, -7328.04, 31558.38, 15652.79, -7223.90, -9326.42, -21319.72, 17793.60, -187500.02, -13822.54, -102325.55, 26557.78, 0.00, 0.00, 0.00
8, -7722.68, -15033.92, -187500.02, -187500.02, -12145.02, -7328.04, 31558.38, 15652.79, -7221.31, -9335.85, -21353.67, 17829.11, -187500.02, -13803.59, -102199.46, 26687.36, -0.84, -0.40, 0.34
9, -7711.31, -15043.57, -187500.02, -187500.02, -12190.10, -7453.05, 31400.51, 15422.32, -7221.31, -9335.85, -21353.67, 17829.11, -187500.02, -13803.59, -102199.46, 26687.36, 0.00, 0.00, 0.00
10, -7711.31, -15043.57, -187500.02, -187500.02, -12190.10, -7453.05, 31400.51, 15422.32, -7235.19, -9341.60, -21343.19, 17750.26, -187500.02, -13841.85, -102340.16, 26504.41, 0.00, 0.00, 0.00
11, -7740.74, -15044.09, -187500.02, -187500.02, -12139.14, -7327.64, 31537.82, 15618.44, -7235.19, -9341.60, -21343.19, 17750.26, -187500.02, -13841.85, -102340.16, 26504.41, 0.00, 0.00, 0.00
12, -7740.74, -15044.09, -187500.02, -187500.02, -12139.14, -7327.64, 31537.82, 15618.44, -7237.11, -9352.19, -21351.23, 17835.08, -187500.02, -13792.79, -102145.50, 26710.65, 0.00, 0.00, 0.00
13, -7729.75, -15054.21, -187500.02, -187500.02, -12190.57, -7434.03, 31414.19, 15442.55, -7237.11, -9352.19, -21351.23, 17835.08, -187500.02, -13792.79, -102145.50, 26710.65, 0.00, 0.00, 0.00
14, -7729.75, -15054.21, -187500.02, -187500.02, -12190.57, -7434.03, 31414.19, 15442.55, -7235.13, -9342.76, -21354.10, 17740.65, -187500.02, -13850.73, -102315.80, 26491.18, 0.00, 0.00, 0.00
15, -7735.31, -15040.51, -187500.02, -187500.02, -12138.20, -7330.81, 31527.38, 15602.57, -7235.13, -9342.76, -21354.10, 17740.65, -187500.02, -13850.73, -102315.80, 26491.18, 0.00, 0.00, 0.00
16, -7735.31, -15040.51, -187500.02, -187500.02, -12138.20, -7330.81, 31527.38, 15602.57, -7224.64, -9338.87, -21339.43, 17847.29, -187500.02, -13782.11, -102093.31, 26732.62, 0.00, 0.00, 0.00
17, -7724.38, -15047.06, -187500.02, -187500.02, -12188.29, -7422.25, 31422.33, 15461.75, -7224.64, -9338.87, -21339.43, 17847.29, -187500.02, -13782.11, -102093.31, 26732.62, 0.00, 0.00, 0.00
18, -7724.38, -15047.06, -187500.02, -187500.02, -12188.29, -7422.25, 31422.33, 15461.75, -7231.71, -9335.63, -21353.25, 17739.15, -187500.02, -13849.92, -102285.18, 26486.91, -0.84, -0.40, 0.33
19, -7738.64, -15039.21, -187500.02, -187500.02, -12142.23, -7312.02, 31538.62, 15606.32, -7231.71, -9335.63, -21353.25, 17739.15, -187500.02, -13849.92, -102285.18, 26486.91, 0.00, 0.00, 0.00
20, -7738.64, -15039.21, -187500.02, -187500.02, -12142.23, -7312.02, 31538.62, 15606.32, -7244.22, -9343.74, -21310.02, 17925.41, -187500.02, -13719.66, -101955.38, 26835.19, 0.00, 0.00, 0.00
21, -7727.47, -15047.22, -187500.02, -187500.02, -12195.45, -7342.19, 31526.44, 15579.10, -7244.22, -9343.74, -21310.02, 17925.41, -187500.02, -13719.66, -101955.38, 26835.19, 0.00, 0.00, 0.00
22, -7727.47, -15047.22, -187500.02, -187500.02, -12195.45, -7342.19, 31526.44, 15579.10, -7233.27, -9338.65, -21380.09, 17757.57, -187500.02, -13857.77, -102205.45, 26527.47, 0.00, 0.00, 0.00
23, -7736.23, -15034.43, -187500.02, -187500.02, -12151.46, -7328.31, 31534.40, 15597.20, -7233.27, -9338.65, -21380.09, 17757.57, -187500.02, -13857.77, -102205.45, 26527.47, 0.00, 0.00, 0.00
24, -7736.23, -15034.43, -187500.02, -187500.02, -12151.46, -7328.31, 31534.40, 15597.20, -7233.49, -9338.29, -21318.33, 17912.73, -187500.02, -13742.08, -101929.13, 26829.58, 0.00, 0.00, 0.00
25, -7721.90, -15046.95, -187500.02, -187500.02, -12187.91, -7368.74, 31506.26, 15572.86, -7233.49, -9338.29, -21318.33, 17912.73, -187500.02, -13742.08, -101929.13, 26829.58, 0.00, 0.00, 0.00
26, -7721.90, -15046.95, -187500.02, -187500.02, -12187.91, -7368.74, 31506.26, 15572.86, -7226.74, -9346.31, -21381.59, 17733.38, -187500.02, -13872.81, -102192.02, 26515.49, 0.00, 0.00, 0.00
27, -7730.10, -15036.91, -187500.02, -187500.02, -12150.99, -7362.58, 31493.65, 15551.90, -7226.74, -9346.31, -21381.59, 17733.38, -187500.02, -13872.81, -102192.02, 26515.49, 0.00, 0.00, 0.00
28, -7730.10, -15036.91, -187500.02, -187500.02, -12150.99, -7362.58, 31493.65, 15551.90, -7232.04, -9337.62, -21309.62, 17895.48, -187500.02, -13742.23, -101913.18, 26818.65, -0.84, -0.41, 0.33
29, -7720.99, -15046.81, -187500.02, -187500.02, -12180.36, -7370.29, 31511.91, 15589.09, -7232.04, -9337.62, -21309.62, 17895.48, -187500.02, -13742.23, -101913.18, 26818.65, 0.00, 0.00, 0.00
30, -7720.99, -15046.81, -187500.02, -187500.02, -12180.36, -7370.29, 31511.91, 15589.09, -7224.31, -9342.54, -21389.88, 17705.82, -187500.02, -13887.97, -102185.20, 26501.39, 0.00, 0.00, 0.00
31, -7731.94, -15036.82, -187500.02, -187500.02, -12152.78, -7399.12, 31458.36, 15504.80, -7224.31, -9342.54, -21389.88, 17705.82, -187500.02, -13887.97, -102185.20, 26501.39, 0.00, 0.00, 0.00
32, -7731.94, -15036.82, -187500.02, -187500.02, -12152.78, -7399.12, 31458.36, 15504.80, -7246.68, -9340.77, -21298.82, 17889.84, -187500.02, -13741.27, -101904.69, 26801.71, 0.00, 0.00, 0.00
33, -7729.75, -15048.00, -187500.02, -187500.02, -12178.71, -7351.56, 31539.83, 15625.59, -7246.68, -9340.77, -21298.82, 17889.84, -187500.02, -13741.27, -101904.69, 26801.71, 0.00, 0.00, 0.00
34, -7729.75, -15048.00, -187500.02, -187500.02, -12178.71, -7351.56, 31539.83, 15625.59, -7219.23, -9345.22, -21391.40, 17726.45, -187500.02, -13885.48, -102127.11, 26539.70, 0.00, 0.00, 0.00
35, -7725.12, -15029.51, -187500.02, -187500.02, -12155.15, -7418.70, 31437.01, 15480.24, -7219.23, -9345.22, -21391.40, 17726.45, -187500.02, -13885.48, -102127.11, 26539.70, 0.00, 0.00, 0.00
36, -7725.12, -15029.51, -187500.02, -187500.02, -12155.15, -7418.70, 31437.01, 15480.24, -7242.08, -9338.65, -21289.79, 17885.35, -187500.02, -13752.83, -101894.83, 26788.54, 0.00, 0.00, 0.00
37, -7727.69, -15043.39, -187500.02, -187500.02, -12157.16, -7332.09, 31562.81, 15660.12, -7242.08, -9338.65, -21289.79, 17885.35, -187500.02, -13752.83, -101894.83, 26788.54, -0.84, -0.41, 0.32
38, -7727.69, -15043.39, -187500.02, -187500.02, -12157.16, -7332.09, 31562.81, 15660.12, -7219.05, -9349.73, -21379.04, 17753.34, -187500.02, -13869.61, -102059.42, 26589.23, 0.00, 0.00, 0.00
39, -7722.08, -15029.78, -187500.02, -187500.02, -12149.25, -7410.27, 31449.84, 15484.93, -7219.05, -9349.73, -21379.04, 17753.34, -187500.02, -13869.61, -102059.42, 26589.23, 0.00, 0.00, 0.00
40, -7722.08, -15029.78, -187500.02, -187500.02, -12149.25, -7410.27, 31449.84, 15484.93, -7233.16, -9334.51, -21286.84, 17885.66, -187500.02, -13751.11, -101875.02, 26776.94, 0.00, 0.00, 0.00
41, -7725.08, -15039.86, -187500.02, -187500.02, -12146.59, -7317.18, 31575.64, 15673.62, -7233.16, -9334.51, -21286.84, 17885.66, -187500.02, -13751.11, -101875.02, 26776.94, 0.00, 0.00, 0.00
42, -7725.08, -15039.86, -187500.02, -187500.02, -12146.59, -7317.18, 31575.64, 15673.62, -7221.36, -9342.27, -21381.46, 17758.44, -187500.02, -13857.14, -102006.41, 26617.57, 0.00, 0.00, 0.00
43, -7715.11, -15031.50, -187500.02, -187500.02, -12158.90, -7441.21, 31405.59, 15427.17, -7221.36, -9342.27, -21381.46, 17758.44, -187500.02, -13857.14, -102006.41, 26617.57, 0.00, 0.00, 0.00
44, -7715.11, -15031.50, -187500.02, -187500.02, -12158.90, -7441.21, 31405.59, 15427.17, -7225.63, -9324.86, -21304.92, 17811.70, -187500.02, -13789.33, -101944.07, 26678.15, 0.00, 0.00, 0.00
45, -7727.04, -15040.38, -187500.02, -187500.02, -12144.08, -7336.62, 31536.77, 15626.55, -7225.63, -9324.86, -21304.92, 17811.70, -187500.02, -13789.33, -101944.07, 26678.15, 0.00, 0.00, 0.00
46, -7727.04, -15040.38, -187500.02, -187500.02, -12144.08, -7336.62, 31536.77, 15626.55, -7214.85, -9344.84, -21370.75, 17741.83, -187500.02, -13850.06, -101995.77, 26608.32, 0.00, 0.00, 0.00
47, -7716.96, -15033.92, -187500.02, -187500.02, -12163.98, -7449.17, 31376.35, 15390.34, -7214.85, -9344.84, -21370.75, 17741.83, -187500.02, -13850.06, -101995.77, 26608.32, -0.84, -0.41, 0.32
48, -7716.96, -15033.92, -187500.02, -187500.02, -12163.98, -7449.17, 31376.35, 15390.34, -7224.31, -9326.02, -21291.49, 17802.85, -187500.02, -13780.05, -101946.93, 26640.10, 0.00, 0.00, 0.00
49, -7726.06, -15034.07, -187500.02, -187500.02, -12124.41, -7286.42, 31575.88, 15659.25, -7224.31, -9326.02, -21291.49, 17802.85, -187500.02, -13780.05, -101946.93, 26640.10, 0.00, 0.00, 0.00
50, -7726.06, -15034.07, -187500.02, -187500.02, -12124.41, -7286.42, 31575.88, 15659.25, -7214.18, -9342.04, -21334.76, 17820.64, -187500.02, -13783.72, -101860.59, 26713.62, 0.00, 0.00, 0.00
51, -7710.01, -15030.72, -187500.02, -187500.02, -12165.81, -7395.66, 31433.75, 15443.29, -7214.18, -9342.04, -21334.76, 17820.64, -187500.02, -13783.72, -101860.59, 26713.62, 0.00, 0.00, 0.00
52, -7710.01, -15030.72, -187500.02, -187500.02, -12165.81, -7395.66, 31433.75, 15443.29, -7221.16, -9329.62, -21298.48, 17814.16, -187500.02, -13779.42, -101898.72, 26652.80, 0.00, 0.00, 0.00
53, -7720.67, -15025.67, -187500.02, -187500.02, -12128.93, -7269.35, 31589.14, 15669.22, -7221.16, -9329.62, -21298.48, 17814.16, -187500.02, -13779.42, -101898.72, 26652.80, 0.00, 0.00, 0.00
54, -7720.67, -15025.67, -187500.02, -187500.02, -12128.93, -7269.35, 31589.14, 15669.22, -7208.71, -9333.98, -21336.42, 17842.57, -187500.02, -13778.31, -101792.59, 26763.15, 0.00, 0.00, 0.00
55, -7715.75, -15029.20, -187500.02, -187500.02, -12165.88, -7383.05, 31449.62, 15459.40, -7208.71, -9333.98, -21336.42, 17842.57, -187500.02, -13778.31, -101792.59, 26763.15, 0.00, 0.00, 0.00
56, -7715.75, -15029.20, -187500.02, -187500.02, -12165.88, -7383.05, 31449.62, 15459.40, -7224.96, -9329.19, -21310.24, 17816.37, -187500.02, -13778.73, -101863.83, 26654.28, 0.00, 0.00, 0.00
57, -7726.71, -15029.29, -187500.02, -187500.02, -12127.16, -7275.29, 31589.70, 15665.00, -7224.96, -9329.19, -21310.24, 17816.37, -187500.02, -13778.73, -101863.83, 26654.28, -0.84, -0.41, 0.33
58, -7726.71, -15029.29, -187500.02, -187500.02, -12127.16, -7275.29, 31589.70, 15665.00, -7220.22, -9339.30, -21334.78, 17869.04, -187500.02, -13759.58, -101708.16, 26822.23, 0.00, 0.00, 0.00
59, -7724.16, -15038.50, -187500.02, -187500.02, -12177.45, -7386.20, 31462.76, 15483.92, -7220.22, -9339.30, -21334.78, 17869.04, -187500.02, -13759.58, -101708.16, 26822.23, 0.00, 0.00, 0.00
60, -7724.16, -15038.50, -187500.02, -187500.02, -12177.45, -7386.20, 31462.76, 15483.92, -7227.44, -9337.02, -21331.39, 17794.89, -187500.02, -13808.46, -101844.60, 26640.26, 0.00, 0.00, 0.00
61, -7728.25, -15032.24, -187500.02, -187500.02, -12130.81, -7291.23, 31582.68, 15658.96, -7227.44, -9337.02, -21331.39, 17794.89, -187500.02, -13808.46, -101844.60, 26640.26, 0.00, 0.00, 0.00
62, -7728.25, -15032.24, -187500.02, -187500.02, -12130.81, -7291.23, 31582.68, 15658.96, -7222.45, -9342.98, -21333.78, 17878.78, -187500.02, -13762.95, -101646.52, 26857.59, 0.00, 0.00, 0.00
63, -7715.00, -15046.77, -187500.02, -187500.02, -12185.79, -7418.81, 31444.50, 15479.41, -7222.45, -9342.98, -21333.78, 17878.78, -187500.02, -13762.95, -101646.52, 26857.59, 0.00, 0.00, 0.00
64, -7715.00, -15046.77, -187500.02, -187500.02, -12185.79, -7418.81, 31444.50, 15479.41, -7221.40, -9331.92, -21351.86, 17737.92, -187500.02, -13854.42, -101881.13, 26570.70, 0.00, 0.00, 0.00
65, -7736.32, -15035.77, -187500.02, -187500.02, -12134.65, -7323.15, 31542.80, 15611.02, -7221.40, -9331.92, -21351.86, 17737.92, -187500.02, -13854.42, -101881.13, 26570.70, 0.00, 0.00, 0.00
66, -7736.32, -15035.77, -187500.02, -187500.02, -12134.65, -7323.15, 31542.80, 15611.02, -7231.55, -9343.86, -21321.28, 17887.36, -187500.02, -13746.39, -101598.27, 26868.72, 0.00, 0.00, 0.00
67, -7720.54, -15051.02, -187500.02, -187500.02, -12190.10, -7402.23, 31461.53, 15504.00, -7231.55, -9343.86, -21321.28, 17887.36, -187500.02, -13746.39, -101598.27, 26868.72, -0.84, -0.41, 0.33
68, -7720.54, -15051.02, -187500.02, -187500.02, -12190.10, -7402.23, 31461.53, 15504.00, -7220.51, -9338.22, -21365.74, 17717.09, -187500.02, -13872.79, -101869.70, 26545.65, 0.00, 0.00, 0.00
69, -7726.30, -15026.59, -187500.02, -187500.02, -12132.26, -7355.24, 31500.29, 15559.90, -7220.51, -9338.22, -21365.74, 17717.09, -187500.02, -13872.79, -101869.70, 26545.65, 0.00, 0.00, 0.00
70, -7726.30, -15026.59, -187500.02, -187500.02, -12132.26, -7355.24, 31500.29, 15559.90, -7225.36, -9337.71, -21302.64, 17894.92, -187500.02, -13735.64, -101568.80, 26869.54, 0.00, 0.00, 0.00
71, -7714.28, -15035.66, -187500.02, -187500.02, -12172.33, -7393.51, 31475.48, 15535.18, -7225.36, -9337.71, -21302.64, 17894.92, -187500.02, -13735.64, -101568.80, 26869.54, 0.00, 0.00, 0.00
72, -7714.28, -15035.66, -187500.02, -187500.02, -12172.33, -7393.51, 31475.48, 15535.18, -7219.84, -9337.80, -21365.88, 17725.85, -187500.02, -13863.22, -101821.55, 26563.64, 0.00, 0.00, 0.00
73, -7714.88, -15018.99, -187500.02, -187500.02, -12131.39, -7383.85, 31478.03, 15542.80, -7219.84, -9337.80, -21365.88, 17725.85, -187500.02, -13863.22, -101821.55, 26563.64, 0.00, 0.00, 0.00
74, -7714.88, -15018.99, -187500.02, -187500.02, -12131.39, -7383.85, 31478.03, 15542.80, -7230.50, -9333.24, -21293.05, 17902.72, -187500.02, -13725.45, -101519.90, 26887.63, 0.00, 0.00, 0.00
75, -7708.85, -15038.28, -187500.02, -187500.02, -12169.88, -7392.06, 31503.22, 15584.62, -7230.50, -9333.24, -21293.05, 17902.72, -187500.02, -13725.45, -101519.90, 26887.63, 0.00, 0.00, 0.00
76, -7708.85, -15038.28, -187500.02, -187500.02, -12169.88, -7392.06, 31503.22, 15584.62, -7211.86, -9334.33, -21381.30, 17710.20, -187500.02, -13879.00, -101791.85, 26564.51, 0.00, 0.00, 0.00
77, -7704.49, -15022.58, -187500.02, -187500.02, -12142.45, -7445.12, 31425.84, 15484.39, -7211.86, -9334.33, -21381.30, 17710.20, -187500.02, -13879.00, -101791.85, 26564.51, -0.84, -0.41, 0.33
78, -7704.49, -15022.58, -187500.02, -187500.02, -12142.45, -7445.12, 31425.84, 15484.39, -7226.25, -9328.14, -21293.63, 17862.89, -187500.02, -13749.56, -101543.55, 26834.43, 0.00, 0.00, 0.00
79, -7706.72, -15044.06, -187500.02, -187500.02, -12172.04, -7416.17, 31472.42, 15559.21, -7226.25, -9328.14, -21293.63, 17862.89, -187500.02, -13749.56, -101543.55, 26834.43, 0.00, 0.00, 0.00
80, -7706.72, -15044.06, -187500.02, -187500.02, -12172.04, -7416.17, 31472.42, 15559.21, -7219.39, -9334.89, -21381.52, 17691.38, -187500.02, -13884.50, -101786.98, 26539.95, 0.00, 0.00, 0.00
81, -7719.85, -15035.95, -187500.02, -187500.02, -12153.56, -7439.73, 31406.30, 15451.98, -7219.39, -9334.89, -21381.52, 17691.38, -187500.02, -13884.50, -101786.98, 26539.95, 0.00, 0.00, 0.00
82, -7719.85, -15035.95, -187500.02, -187500.02, -12153.56, -7439.73, 31406.30, 15451.98, -7235.86, -9325.48, -21282.17, 17880.50, -187500.02, -13725.58, -101510.02, 26826.76, 0.00, 0.00, 0.00
83, -7715.62, -15049.59, -187500.02, -187500.02, -12171.33, -7340.67, 31528.74, 15616.25, -7235.86, -9325.48, -21282.17, 17880.50, -187500.02, -13725.58, -101510.02, 26826.76, 0.00, 0.00, 0.00
84, -7715.62, -15049.59, -187500.02, -187500.02, -12171.33, -7340.67, 31528.74, 15616.25, -7214.96, -9340.84, -21383.02, 17731.64, -187500.02, -13860.29, -101701.82, 26589.03, 0.00, 0.00, 0.00
85, -7718.91, -15038.16, -187500.02, -187500.02, -12171.08, -7412.22, 31408.58, 15443.60, -7214.96, -9340.84, -21383.02, 17731.64, -187500.02, -13860.29, -101701.82, 26589.03, 0.00, 0.00, 0.00
86, -7718.91, -15038.16, -187500.02, -187500.02, -12171.08, -7412.22, 31408.58, 15443.60, -7231.50, -9327.63, -21289.59, 17874.96, -187500.02, -13737.29, -101500.63, 26795.20, 0.00, 0.00, 0.00
87, -7719.31, -15051.55, -187500.02, -187500.02, -12173.05, -7300.46, 31562.23, 15654.83, -7231.50, -9327.63, -21289.59, 17874.96, -187500.02, -13737.29, -101500.63, 26795.20, -0.84, -0.41, 0.32
88, -7719.31, -15051.55, -187500.02, -187500.02, -12173.05, -7300.46, 31562.23, 15654.83, -7210.05, -9345.84, -21385.43, 17759.31, -187500.02, -13847.51, -101628.38, 26629.80, 0.00, 0.00, 0.00
89, -7700.38, -15036.76, -187500.02, -187500.02, -12177.32, -7424.87, 31395.86, 15422.88, -7210.05, -9345.84, -21385.43, 17759.31, -187500.02, -13847.51, -101628.38, 26629.80, 0.00, 0.00, 0.00
90, -7700.38, -15036.76, -187500.02, -187500.02, -12177.32, -7424.87, 31395.86, 15422.88, -7215.41, -9323.63, -21291.00, 17846.59, -187500.02, -13761.48, -101514.83, 26743.44, 0.00, 0.00, 0.00
91, -7704.69, -15039.57, -187500.02, -187500.02, -12159.19, -7308.98, 31550.96, 15646.40, -7215.41, -9323.63, -21291.00, 17846.59, -187500.02, -13761.48, -101514.83, 26743.44, 0.00, 0.00, 0.00
92, -7704.69, -15039.57, -187500.02, -187500.02, -12159.19, -7308.98, 31550.96, 15646.40, -7204.97, -9340.21, -21359.10, 17789.80, -187500.02, -13821.63, -101550.56, 26684.49, 0.00, 0.00, 0.00
93, -7705.92, -15037.78, -187500.02, -187500.02, -12171.51, -7415.48, 31416.09, 15440.36, -7204.97, -9340.21, -21359.10, 17789.80, -187500.02, -13821.63, -101550.56, 26684.49, 0.00, 0.00, 0.00
94, -7705.92, -15037.78, -187500.02, -187500.02, -12171.51, -7415.48, 31416.09, 15440.36, -7222.81, -9331.12, -21299.67, 17848.65, -187500.02, -13769.68, -101483.11, 26742.32, 0.00, 0.00, 0.00
95, -7710.50, -15038.83, -187500.02, -187500.02, -12146.76, -7321.31, 31548.88, 15649.53, -7222.81, -9331.12, -21299.67, 17848.65, -187500.02, -13769.68, -101483.11, 26742.32, 0.00, 0.00, 0.00
96, -7710.50, -15038.83, -187500.02, -187500.02, -12146.76, -7321.31, 31548.88, 15649.53, -7211.05, -9339.09, -21366.79, 17789.13, -187500.02, -13829.85, -101502.02, 26717.04, 0.00, 0.00, 0.00
97, -7697.20, -15029.02, -187500.02, -187500.02, -12174.12, -7449.77, 31382.90, 15409.38, -7211.05, -9339.09, -21366.79, 17789.13, -187500.02, -13829.85, -101502.02, 26717.04, -0.84, -0.41, 0.32
98, -7697.20, -15029.02, -187500.02, -187500.02, -12174.12, -7449.77, 31382.90, 15409.38, -7215.70, -9321.91, -21298.19, 17813.04, -187500.02, -13788.59, -101503.67, 26695.94, 0.00, 0.00, 0.00
99, -7705.61, -15026.52, -187500.02, -187500.02, -12143.48, -7318.41, 31541.44, 15644.43, -7215.70, -9321.91, -21298.19, 17813.04, -187500.02, -13788.59, -101503.67, 26695.94, 0.00, 0.00, 0.00
100, -7705.61, -15026.52, -187500.02, -187500.02, -12143.48, -7318.41, 31541.44, 15644.43, -7203.56, -9335.29, -21340.19, 17818.68, -187500.02, -13802.49, -101431.50, 26768.36, 0.00, 0.00, 0.00
101, -7696.24, -15033.63, -187500.02, -187500.02, -12191.92, -7444.43, 31377.45, 15412.04, -7203.56, -9335.29, -21340.19, 17818.68, -187500.02, -13802.49, -101431.50, 26768.36, 0.00, 0.00, 0.00
102, -7696.24, -15033.63, -187500.02, -187500.02, -12191.92, -7444.43, 31377.45, 15412.04, -7209.85, -9317.97, -21305.88, 17787.09, -187500.02, -13809.04, -101515.07, 26656.64, 0.00, 0.00, 0.00
103, -7709.47, -15025.04, -187500.02, -187500.02, -12140.82, -7307.97, 31538.02, 15641.66, -7209.85, -9317.97, -21305.88, 17787.09, -187500.02, -13809.04, -101515.07, 26656.64, 0.00, 0.00, 0.00
104, -7709.47, -15025.04, -187500.02, -187500.02, -12140.82, -7307.97, 31538.02, 15641.66, -7203.68, -9331.23, -21320.10, 17868.86, -187500.02, -13757.41, -101337.35, 26841.81, 0.00, 0.00, 0.00
105, -7690.23, -15030.63, -187500.02, -187500.02, -12196.52, -7425.67, 31399.55, 15442.01, -7203.68, -9331.23, -21320.10, 17868.86, -187500.02, -13757.41, -101337.35, 26841.81, 0.00, 0.00, 0.00
106, -7690.23, -15030.63, -187500.02, -187500.02, -12196.52, -7425.67, 31399.55, 15442.01, -7209.38, -9323.00, -21319.41, 17778.15, -187500.02, -13819.93, -101500.25, 26642.96, 0.00, 0.00, 0.00
107, -7711.80, -15024.22, -187500.02, -187500.02, -12145.38, -7314.38, 31529.91, 15627.94, -7209.38, -9323.00, -21319.41, 17778.15, -187500.02, -13819.93, -101500.25, 26642.96, -0.84, -0.40, 0.33
108, -7711.80, -15024.22, -187500.02, -187500.02, -12145.38, -7314.38, 31529.91, 15627.94, -7214.70, -9328.43, -21318.54, 17873.82, -187500.02, -13757.81, -101290.15, 26863.44, 0.00, 0.00, 0.00
109, -7691.66, -15033.11, -187500.02, -187500.02, -12188.21, -7425.99, 31409.27, 15454.31, -7214.70, -9328.43, -21318.54, 17873.82, -187500.02, -13757.81, -101290.15, 26863.44, 0.00, 0.00, 0.00
110, -7691.66, -15033.11, -187500.02, -187500.02, -12188.21, -7425.99, 31409.27, 15454.31, -7208.59, -9312.94, -21329.35, 17748.76, -187500.02, -13836.76, -101504.61, 26603.31, 0.00, 0.00, 0.00
111, -7707.19, -15020.60, -187500.02, -187500.02, -12120.72, -7337.07, 31512.29, 15595.82, -7208.59, -9312.94, -21329.35, 17748.76, -187500.02, -13836.76, -101504.61, 26603.31, 0.00, 0.00, 0.00
112, -7707.19, -15020.60, -187500.02, -187500.02, -12120.72, -7337.07, 31512.29, 15595.82, -7211.50, -9320.88, -21298.75, 17889.02, -187500.02, -13734.01, -101245.40, 26880.59, 0.00, 0.00, 0.00
113, -7699.46, -15037.52, -187500.02, -187500.02, -12172.96, -7400.86, 31448.81, 15493.49, -7211.50, -9320.88, -21298.75, 17889.02, -187500.02, -13734.01, -101245.40, 26880.59, 0.00, 0.00, 0.00
114, -7699.46, -15037.52, -187500.02, -187500.02, -12172.96, -7400.86, 31448.81, 15493.49, -7208.04, -9326.38, -21346.61, 17738.39, -187500.02, -13844.74, -101486.15, 26584.63, 0.00, 0.00, 0.00
115, -7709.92, -15031.53, -187500.02, -187500.02, -12133.62, -7338.10, 31506.66, 15577.47, -7208.04, -9326.38, -21346.61, 17738.39, -187500.02, -13844.74, -101486.15, 26584.63, 0.00, 0.00, 0.00
116, -7709.92, -15031.53, -187500.02, -187500.02, -12133.62, -7338.10, 31506.66, 15577.47, -7209.06, -9328.14, -21303.31, 17884.79, -187500.02, -13737.47, -101216.20, 26873.70, 0.00, 0.00, 0.00
117, -7697.29, -15036.13, -187500.02, -187500.02, -12183.18, -7396.15, 31451.23, 15503.77, -7209.06, -9328.14, -21303.31, 17884.79, -187500.02, -13737.47, -101216.20, 26873.70, -0.83, -0.41, 0.32
118, -7697.29, -15036.13, -187500.02, -187500.02, -12183.18, -7396.15, 31451.23, 15503.77, -7219.97, -9322.53, -21359.42, 17708.33, -187500.02, -13865.12, -101492.34, 26542.96, 0.00, 0.00, 0.00
119, -7733.99, -15037.78, -187500.02, -187500.02, -12139.54, -7343.08, 31488.15, 15544.16, -7219.97, -9322.53, -21359.42, 17708.33, -187500.02, -13865.12, -101492.34, 26542.96, 0.00, 0.00, 0.00
120, -7733.99, -15037.78, -187500.02, -187500.02, -12139.54, -7343.08, 31488.15, 15544.16, -7246.61, -9329.22, -21303.11, 17879.43, -187500.02, -13732.67, -101195.10, 26862.88, 0.00, 0.00, 0.00
121, -7739.87, -15059.69, -187500.02, -187500.02, -12188.23, -7352.00, 31495.93, 15556.28, -7246.61, -9329.22, -21303.11, 17879.43, -187500.02, -13732.67, -101195.10, 26862.88, 0.00, 0.00, 0.00
122, -7739.87, -15059.69, -187500.02, -187500.02, -12188.23, -7352.00, 31495.93, 15556.28, -7256.52, -9339.47, -21383.33, 17707.59, -187500.02, -13865.52, -101444.06, 26556.51, 0.00, 0.00, 0.00
123, -7778.65, -15066.91, -187500.02, -187500.02, -12164.80, -7344.74, 31486.23, 15537.17, -7256.52, -9339.47, -21383.33, 17707.59, -187500.02, -13865.52, -101444.06, 26556.51, 0.00, 0.00, 0.00
124, -7778.65, -15066.91, -187500.02, -187500.02, -12164.80, -7344.74, 31486.23, 15537.17, -7301.96, -9340.30, -21331.30, 17866.53, -187500.02, -13744.09, -101168.04, 26853.36, 0.00, 0.00, 0.00
125, -7796.42, -15090.85, -187500.02, -187500.02, -12203.49, -7354.10, 31502.01, 15578.20, -7301.96, -9340.30, -21331.30, 17866.53, -187500.02, -13744.09, -101168.04, 26853.36, 0.00, 0.00, 0.00
126, -7796.42, -15090.85, -187500.02, -187500.02, -12203.49, -7354.10, 31502.01, 15578.20, -7316.53, -9345.46, -21435.97, 17662.79, -187500.02, -13900.97, -101449.52, 26526.89, 0.00, 0.00, 0.00
127, -7836.07, -15095.47, -187500.02, -187500.02, -12180.43, -7408.71, 31413.28, 15459.45, -7316.53, -9345.46, -21435.97, 17662.79, -187500.02, -13900.97, -101449.52, 26526.89, -0.83, -0.41, 0.32
128, -7836.07, -15095.47, -187500.02, -187500.02, -12180.43, -7408.71, 31413.28, 15459.45, -7368.16, -9344.06, -21362.08, 17815.10, -187500.02, -13761.25, -101205.16, 26794.24, 0.00, 0.00, 0.00
129, -7860.86, -15119.10, -187500.02, -187500.02, -12205.26, -7360.23, 31489.40, 15575.23, -7368.16, -9344.06, -21362.08, 17815.10, -187500.02, -13761.25, -101205.16, 26794.24, 0.00, 0.00, 0.00
130, -7860.86, -15119.10, -187500.02, -187500.02, -12205.26, -7360.23, 31489.40, 15575.23, -7374.20, -9349.26, -21473.97, 17631.61, -187500.02, -13905.65, -101442.41, 26517.46, 0.00, 0.00, 0.00
131, -7885.81, -15112.21, -187500.02, -187500.02, -12195.25, -7422.23, 31392.85, 15426.53, -7374.20, -9349.26, -21473.97, 17631.61, -187500.02, -13905.65, -101442.41, 26517.46, 0.00, 0.00, 0.00
132, -7885.81, -15112.21, -187500.02, -187500.02, -12195.25, -7422.23, 31392.85, 15426.53, -7430.05, -9349.42, -21382.93, 17803.21, -187500.02, -13753.54, -101186.37, 26788.23, 0.00, 0.00, 0.00
133, -7910.77, -15142.14, -187500.02, -187500.02, -12201.88, -7328.20, 31529.91, 15619.87, -7430.05, -9349.42, -21382.93, 17803.21, -187500.02, -13753.54, -101186.37, 26788.23, 0.00, 0.00, 0.00
134, -7910.77, -15142.14, -187500.02, -187500.02, -12201.88, -7328.20, 31529.91, 15619.87, -7422.68, -9363.55, -21499.72, 17644.69, -187500.02, -13898.11, -101371.28, 26572.89, 0.00, 0.00, 0.00
135, -7928.54, -15137.96, -187500.02, -187500.02, -12196.12, -7438.19, 31381.63, 15413.54, -7422.68, -9363.55, -21499.72, 17644.69, -187500.02, -13898.11, -101371.28, 26572.89, 0.00, 0.00, 0.00
136, -7928.54, -15137.96, -187500.02, -187500.02, -12196.12, -7438.19, 31381.63, 15413.54, -7457.19, -9357.31, -21407.61, 17779.40, -187500.02, -13775.60, -101180.20, 26765.70, 0.00, 0.00, 0.00
137, -7942.76, -15153.41, -187500.02, -187500.02, -12190.86, -7300.03, 31570.70, 15670.90, -7457.19, -9357.31, -21407.61, 17779.40, -187500.02, -13775.60, -101180.20, 26765.70, -0.83, -0.41, 0.32
138, -7942.76, -15153.41, -187500.02, -187500.02, -12190.86, -7300.03, 31570.70, 15670.90, -7437.90, -9373.00, -21503.74, 17692.41, -187500.02, -13866.69, -101249.53, 26669.86, 0.00, 0.00, 0.00
139, -7925.82, -15143.66, -187500.02, -187500.02, -12214.83, -7451.67, 31387.06, 15418.57, -7437.90, -9373.00, -21503.74, 17692.41, -187500.02, -13866.69, -101249.53, 26669.86, 0.00, 0.00, 0.00
140, -7925.82, -15143.66, -187500.02, -187500.02, -12214.83, -7451.67, 31387.06, 15418.57, -7457.48, -9355.75, -21431.14, 17738.10, -187500.02, -13813.60, -101198.13, 26719.68, 0.00, 0.00, 0.00
141, -7941.13, -15151.31, -187500.02, -187500.02, -12198.78, -7354.57, 31522.71, 15625.14, -7457.48, -9355.75, -21431.14, 17738.10, -187500.02, -13813.60, -101198.13, 26719.68, 0.00, 0.00, 0.00
142, -7941.13, -15151.31, -187500.02, -187500.02, -12198.78, -7354.57, 31522.71, 15625.14, -7447.06, -9373.29, -21510.38, 17664.76, -187500.02, -13882.69, -101248.21, 26657.58, 0.00, 0.00, 0.00
143, -7930.26, -15145.03, -187500.02, -187500.02, -12229.15, -7504.20, 31335.13, 15359.51, -7447.06, -9373.29, -21510.38, 17664.76, -187500.02, -13882.69, -101248.21, 26657.58, 0.00, 0.00, 0.00
144, -7930.26, -15145.03, -187500.02, -187500.02, -12229.15, -7504.20, 31335.13, 15359.51, -7459.02, -9358.32, -21453.38, 17664.34, -187500.02, -13856.61, -101279.95, 26614.38, 0.00, 0.00, 0.00
145, -7936.50, -15144.65, -187500.02, -187500.02, -12203.49, -7400.26, 31463.74, 15553.97, -7459.02, -9358.32, -21453.38, 17664.34, -187500.02, -13856.61, -101279.95, 26614.38, 0.00, 0.00, 0.00
146, -7936.50, -15144.65, -187500.02, -187500.02, -12203.49, -7400.26, 31463.74, 15553.97, -7434.17, -9364.73, -21510.56, 17615.43, -187500.02, -13896.64, -101294.93, 26595.60, 0.00, 0.00, 0.00
147, -7915.15, -15136.74, -187500.02, -187500.02, -12238.41, -7555.69, 31254.09, 15263.29, -7434.17, -9364.73, -21510.56, 17615.43, -187500.02, -13896.64, -101294.93, 26595.60, -0.83, -0.41, 0.32
148, -7915.15, -15136.74, -187500.02, -187500.02, -12238.41, -7555.69, 31254.09, 15263.29, -7445.50, -9348.75, -21452.09, 17594.26, -187500.02, -13875.38, -101378.10, 26488.83, 0.00, 0.00, 0.00
149, -7923.58, -15131.35, -187500.02, -187500.02, -12188.27, -7410.63, 31415.67, 15487.03, -7445.50, -9348.75, -21452.09, 17594.26, -187500.02, -13875.38, -101378.10, 26488.83, 0.00, 0.00, 0.00
150, -7923.58, -15131.35, -187500.02, -187500.02, -12188.27, -7410.63, 31415.67, 15487.03, -7435.33, -9359.23, -21481.81, 17629.87, -187500.02, -13852.63, -101278.86, 26594.24, 0.00, 0.00, 0.00
151, -7901.63, -15127.35, -187500.02, -187500.02, -12236.71, -7511.57, 31276.10, 15273.46, -7435.33, -9359.23, -21481.81, 17629.87, -187500.02, -13852.63, -101278.86, 26594.24, 0.00, 0.00, 0.00
152, -7901.63, -15127.35, -187500.02, -187500.02, -12236.71, -7511.57, 31276.10, 15273.46, -7428.71, -9348.84, -21446.30, 17592.39, -187500.02, -13863.58, -101386.30, 26449.06, 0.00, 0.00, 0.00
153, -7908.25, -15120.57, -187500.02, -187500.02, -12196.88, -7367.60, 31438.89, 15492.40, -7428.71, -9348.84, -21446.30, 17592.39, -187500.02, -13863.58, -101386.30, 26449.06, 0.00, 0.00, 0.00
154, -7908.25, -15120.57, -187500.02, -187500.02, -12196.88, -7367.60, 31438.89, 15492.40, -7409.18, -9354.65, -21464.36, 17653.32, -187500.02, -13836.27, -101236.08, 26611.83, 0.00, 0.00, 0.00
155, -7882.39, -15114.94, -187500.02, -187500.02, -12241.04, -7481.78, 31293.56, 15281.28, -7409.18, -9354.65, -21464.36, 17653.32, -187500.02, -13836.27, -101236.08, 26611.83, 0.00, 0.00, 0.00
156, -7882.39, -15114.94, -187500.02, -187500.02, -12241.04, -7481.78, 31293.56, 15281.28, -7413.05, -9343.07, -21452.89, 17556.89, -187500.02, -13889.82, -101424.45, 26377.61, 0.00, 0.00, 0.00
157, -7893.54, -15099.56, -187500.02, -187500.02, -12190.64, -7357.95, 31424.94, 15449.57, -7413.05, -9343.07, -21452.89, 17556.89, -187500.02, -13889.82, -101424.45, 26377.61, -0.83, -0.41, 0.32
158, -7893.54, -15099.56, -187500.02, -187500.02, -12190.64, -7357.95, 31424.94, 15449.57, -7400.77, -9345.51, -21435.54, 17670.98, -187500.02, -13811.10, -101207.42, 26608.59, 0.00, 0.00, 0.00
159, -7862.38, -15098.18, -187500.02, -187500.02, -12244.64, -7459.72, 31304.49, 15279.21, -7400.77, -9345.51, -21435.54, 17670.98, -187500.02, -13811.10, -101207.42, 26608.59, 0.00, 0.00, 0.00
160, -7862.38, -15098.18, -187500.02, -187500.02, -12244.64, -7459.72, 31304.49, 15279.21, -7382.45, -9341.22, -21469.21, 17497.44, -187500.02, -13937.21, -101501.91, 26267.21, 0.00, 0.00, 0.00
161, -7869.89, -15079.45, -187500.02, -187500.02, -12179.87, -7416.87, 31340.50, 15335.80, -7382.45, -9341.22, -21469.21, 17497.44, -187500.02, -13937.21, -101501.91, 26267.21, 0.00, 0.00, 0.00
162, -7869.89, -15079.45, -187500.02, -187500.02, -12179.87, -7416.87, 31340.50, 15335.80, -7389.53, -9338.51, -21416.61, 17639.15, -187500.02, -13821.11, -101267.95, 26520.99, 0.00, 0.00, 0.00
163, -7856.10, -15094.56, -187500.02, -187500.02, -12221.62, -7468.72, 31282.61, 15247.47, -7389.53, -9338.51, -21416.61, 17639.15, -187500.02, -13821.11, -101267.95, 26520.99, 0.00, 0.00, 0.00
164, -7856.10, -15094.56, -187500.02, -187500.02, -12221.62, -7468.72, 31282.61, 15247.47, -7379.16, -9338.31, -21467.38, 17473.86, -187500.02, -13940.94, -101558.43, 26179.39, 0.00, 0.00, 0.00
165, -7864.89, -15073.68, -187500.02, -187500.02, -12174.75, -7428.56, 31310.88, 15280.08, -7379.16, -9338.31, -21467.38, 17473.86, -187500.02, -13940.94, -101558.43, 26179.39, 0.00, 0.00, 0.00
166, -7864.89, -15073.68, -187500.02, -187500.02, -12174.75, -7428.56, 31310.88, 15280.08, -7394.11, -9341.64, -21394.13, 17664.20, -187500.02, -13786.76, -101267.55, 26495.31, 0.00, 0.00, 0.00
167, -7844.12, -15080.72, -187500.02, -187500.02, -12226.40, -7436.72, 31322.48, 15275.03, -7394.11, -9341.64, -21394.13, 17664.20, -187500.02, -13786.76, -101267.55, 26495.31, -0.83, -0.41, 0.32
168, -7844.12, -15080.72, -187500.02, -187500.02, -12226.40, -7436.72, 31322.48, 15275.03, -7351.31, -9332.64, -21466.79, 17471.11, -187500.02, -13940.18, -101581.52, 26134.02, 0.00, 0.00, 0.00
169, -7842.42, -15054.08, -187500.02, -187500.02, -12189.88, -7450.08, 31287.59, 15222.90, -7351.31, -9332.64, -21466.79, 17471.11, -187500.02, -13940.18, -101581.52, 26134.02, 0.00, 0.00, 0.00
170, -7842.42, -15054.08, -187500.02, -187500.02, -12189.88, -7450.08, 31287.59, 15222.90, -7364.68, -9325.77, -21384.12, 17646.52, -187500.02, -13796.79, -101320.32, 26420.14, 0.00, 0.00, 0.00
171, -7829.41, -15063.91, -187500.02, -187500.02, -12232.01, -7458.98, 31291.39, 15233.47, -7364.68, -9325.77, -21384.12, 17646.52, -187500.02, -13796.79, -101320.32, 26420.14, 0.00, 0.00, 0.00
172, -7829.41, -15063.91, -187500.02, -187500.02, -12232.01, -7458.98, 31291.39, 15233.47, -7349.92, -9331.47, -21466.35, 17457.90, -187500.02, -13940.67, -101618.41, 26074.00, 0.00, 0.00, 0.00
173, -7837.21, -15054.06, -187500.02, -187500.02, -12199.09, -7480.01, 31237.70, 15147.84, -7349.92, -9331.47, -21466.35, 17457.90, -187500.02, -13940.67, -101618.41, 26074.00, 0.00, 0.00, 0.00
174, -7837.21, -15054.06, -187500.02, -187500.02, -12199.09, -7480.01, 31237.70, 15147.84, -7360.07, -9332.84, -21377.30, 17629.20, -187500.02, -13799.63, -101369.74, 26345.26, 0.00, 0.00, 0.00
175, -7824.21, -15063.06, -187500.02, -187500.02, -12223.19, -7465.68, 31274.60, 15204.95, -7360.07, -9332.84, -21377.30, 17629.20, -187500.02, -13799.63, -101369.74, 26345.26, 0.00, 0.00, 0.00
176, -7824.21, -15063.06, -187500.02, -187500.02, -12223.19, -7465.68, 31274.60, 15204.95, -7335.60, -9335.34, -21465.27, 17434.40, -187500.02, -13950.10, -101659.64, 26013.34, 0.00, 0.00, 0.00
177, -7826.28, -15046.55, -187500.02, -187500.02, -12187.38, -7525.79, 31172.19, 15046.25, -7335.60, -9335.34, -21465.27, 17434.40, -187500.02, -13950.10, -101659.64, 26013.34, -0.83, -0.41, 0.33
178, -7826.28, -15046.55, -187500.02, -187500.02, -12187.38, -7525.79, 31172.19, 15046.25, -7353.37, -9326.40, -21375.75, 17579.89, -187500.02, -13817.02, -101454.95, 26230.33, 0.00, 0.00, 0.00
179, -7818.71, -15052.09, -187500.02, -187500.02, -12205.04, -7472.46, 31252.45, 15162.64, -7353.37, -9326.40, -21375.75, 17579.89, -187500.02, -13817.02, -101454.95, 26230.33, 0.00, 0.00, 0.00
180, -7818.71, -15052.09, -187500.02, -187500.02, -12205.04, -7472.46, 31252.45, 15162.64, -7333.94, -9337.89, -21468.69, 17403.78, -187500.02, -13956.52, -101693.28, 25949.70, 0.00, 0.00, 0.00
181, -7808.45, -15038.01, -187500.02, -187500.02, -12208.23, -7575.25, 31101.24, 14941.09, -7333.94, -9337.89, -21468.69, 17403.78, -187500.02, -13956.52, -101693.28, 25949.70, 0.00, 0.00, 0.00
182, -7808.45, -15038.01, -187500.02, -187500.02, -12208.23, -7575.25, 31101.24, 14941.09, -7340.09, -9322.51, -21380.81, 17489.72, -187500.02, -13861.57, -101579.98, 26068.84, 0.00, 0.00, 0.00
183, -7805.05, -15041.87, -187500.02, -187500.02, -12214.47, -7501.11, 31202.41, 15084.77, -7340.09, -9322.51, -21380.81, 17489.72, -187500.02, -13861.57, -101579.98, 26068.84, 0.00, 0.00, 0.00
184, -7805.05, -15041.87, -187500.02, -187500.02, -12214.47, -7501.11, 31202.41, 15084.77, -7324.80, -9327.16, -21463.60, 17335.86, -187500.02, -13963.89, -101762.30, 25848.00, 0.00, 0.00, 0.00
185, -7793.29, -15027.37, -187500.02, -187500.02, -12223.05, -7619.20, 31031.37, 14823.27, -7324.80, -9327.16, -21463.60, 17335.86, -187500.02, -13963.89, -101762.30, 25848.00, 0.00, 0.00, 0.00
186, -7793.29, -15027.37, -187500.02, -187500.02, -12223.05, -7619.20, 31031.37, 14823.27, -7336.65, -9310.98, -21379.40, 17381.74, -187500.02, -13877.57, -101705.95, 25892.77, 0.00, 0.00, 0.00
187, -7799.08, -15033.63, -187500.02, -187500.02, -12202.11, -7504.96, 31174.76, 15008.75, -7336.65, -9310.98, -21379.40, 17381.74, -187500.02, -13877.57, -101705.95, 25892.77, -0.83, -0.41, 0.33
188, -7799.08, -15033.63, -187500.02, -187500.02, -12202.11, -7504.96, 31174.76, 15008.75, -7312.22, -9327.20, -21464.31, 17241.89, -187500.02, -13969.33, -101839.75, 25724.76, 0.00, 0.00, 0.00
189, -7774.36, -15020.89, -187500.02, -187500.02, -12226.60, -7685.07, 30944.07, 14672.44, -7312.22, -9327.20, -21464.31, 17241.89, -187500.02, -13969.33, -101839.75, 25724.76, 0.00, 0.00, 0.00
190, -7774.36, -15020.89, -187500.02, -187500.02, -12226.60, -7685.07, 30944.07, 14672.44, -7318.25, -9311.96, -21397.75, 17188.40, -187500.02, -13951.69, -101924.76, 25612.97, 0.00, 0.00, 0.00
191, -7793.23, -15023.17, -187500.02, -187500.02, -12198.20, -7585.09, 31058.93, 14827.54, -7318.25, -9311.96, -21397.75, 17188.40, -187500.02, -13951.69, -101924.76, 25612.97, 0.00, 0.00, 0.00
192, -7793.23, -15023.17, -187500.02, -187500.02, -12198.20, -7585.09, 31058.93, 14827.54, -7316.78, -9333.17, -21456.47, 17100.94, -187500.02, -13986.78, -101989.76, 25519.39, 0.00, 0.00, 0.00
193, -7782.56, -15019.34, -187500.02, -187500.02, -12233.67, -7724.49, 30863.80, 14530.38, -7316.78, -9333.17, -21456.47, 17100.94, -187500.02, -13986.78, -101989.76, 25519.39, 0.00, 0.00, 0.00
194, -7782.56, -15019.34, -187500.02, -187500.02, -12233.67, -7724.49, 30863.80, 14530.38, -7327.28, -9314.71, -21401.68, 17064.06, -187500.02, -13963.98, -102093.94, 25381.05, 0.00, 0.00, 0.00
195, -7796.94, -15018.90, -187500.02, -187500.02, -12201.86, -7603.50, 30998.27, 14712.66, -7327.28, -9314.71, -21401.68, 17064.06, -187500.02, -13963.98, -102093.94, 25381.05, 0.00, 0.00, 0.00
196, -7796.94, -15018.90, -187500.02, -187500.02, -12201.86, -7603.50, 30998.27, 14712.66, -7309.49, -9326.78, -21443.21, 17042.69, -187500.02, -13966.22, -102089.53, 25375.29, 0.00, 0.00, 0.00
197, -7771.52, -15013.29, -187500.02, -187500.02, -12238.47, -7733.66, 30819.61, 14438.78, -7309.49, -9326.78, -21443.21, 17042.69, -187500.02, -13966.22, -102089.53, 25375.29, -0.83, -0.41, 0.33
198, -7771.52, -15013.29, -187500.02, -187500.02, -12238.47, -7733.66, 30819.61, 14438.78, -7317.69, -9310.15, -21397.28, 16999.35, -187500.02, -13962.13, -102240.20, 25188.34, 0.00, 0.00, 0.00
199, -7789.83, -15005.51, -187500.02, -187500.02, -12189.93, -7583.66, 30980.03, 14645.15, -7317.69, -9310.15, -21397.28, 16999.35, -187500.02, -13962.13, -102240.20, 25188.34, 0.00, 0.00, 0.00
200, -7789.83, -15005.51, -187500.02, -187500.02, -12189.93, -7583.66, 30980.03, 14645.15, -7304.30, -9319.96, -21411.43, 17065.73, -187500.02, -13915.97, -102132.23, 25307.36, 0.00, 0.00, 0.00
201, -7768.04, -15009.44, -187500.02, -187500.02, -12238.65, -7709.09, 30816.91, 14405.97, -7304.30, -9319.96, -21411.43, 17065.73, -187500.02, -13915.97, -102132.23, 25307.36, 0.00, 0.00, 0.00
202, -7768.04, -15009.44, -187500.02, -187500.02, -12238.65, -7709.09, 30816.91, 14405.97, -7303.25, -9308.70, -21406.02, 16960.75, -187500.02, -13979.18, -102377.36, 25033.06, 0.00, 0.00, 0.00
203, -7786.63, -15009.53, -187500.02, -187500.02, -12186.73, -7610.63, 30909.38, 14540.64, -7303.25, -9308.70, -21406.02, 16960.75, -187500.02, -13979.18, -102377.36, 25033.06, 0.00, 0.00, 0.00
204, -7786.63, -15009.53, -187500.02, -187500.02, -12186.73, -7610.63, 30909.38, 14540.64, -7309.60, -9319.69, -21388.99, 17082.52, -187500.02, -13882.13, -102200.11, 25231.12, 0.00, 0.00, 0.00
205, -7769.13, -15018.34, -187500.02, -187500.02, -12227.97, -7651.65, 30847.73, 14422.15, -7309.60, -9319.69, -21388.99, 17082.52, -187500.02, -13882.13, -102200.11, 25231.12, 0.00, 0.00, 0.00
206, -7769.13, -15018.34, -187500.02, -187500.02, -12227.97, -7651.65, 30847.73, 14422.15, -7299.27, -9308.74, -21401.57, 17006.08, -187500.02, -13938.39, -102411.89, 24983.48, 0.00, 0.00, 0.00
207, -7776.15, -15001.22, -187500.02, -187500.02, -12186.71, -7570.38, 30928.58, 14540.90, -7299.27, -9308.74, -21401.57, 17006.08, -187500.02, -13938.39, -102411.89, 24983.48, -0.84, -0.41, 0.33
208, -7776.15, -15001.22, -187500.02, -187500.02, -12186.71, -7570.38, 30928.58, 14540.90, -7300.03, -9309.23, -21375.08, 17144.88, -187500.02, -13852.67, -102214.68, 25215.72, 0.00, 0.00, 0.00
209, -7762.94, -15006.18, -187500.02, -187500.02, -12233.96, -7643.65, 30844.96, 14419.33, -7300.03, -9309.23, -21375.08, 17144.88, -187500.02, -13852.67, -102214.68, 25215.72, 0.00, 0.00, 0.00
210, -7762.94, -15006.18, -187500.02, -187500.02, -12233.96, -7643.65, 30844.96, 14419.33, -7301.15, -9306.95, -21400.70, 17040.28, -187500.02, -13937.97, -102469.36, 24925.03, 0.00, 0.00, 0.00
211, -7778.83, -14997.06, -187500.02, -187500.02, -12179.84, -7553.44, 30934.30, 14533.17, -7301.15, -9306.95, -21400.70, 17040.28, -187500.02, -13937.97, -102469.36, 24925.03, 0.00, 0.00, 0.00
212, -7778.83, -14997.06, -187500.02, -187500.02, -12179.84, -7553.44, 30934.30, 14533.17, -7301.49, -9309.03, -21359.37, 17229.01, -187500.02, -13820.04, -102208.11, 25231.01, 0.00, 0.00, 0.00
213, -7770.67, -15009.75, -187500.02, -187500.02, -12218.98, -7581.87, 30914.74, 14504.52, -7301.49, -9309.03, -21359.37, 17229.01, -187500.02, -13820.04, -102208.11, 25231.01, 0.00, 0.00, 0.00
214, -7770.67, -15009.75, -187500.02, -187500.02, -12218.98, -7581.87, 30914.74, 14504.52, -7293.22, -9311.51, -21409.64, 17115.31, -187500.02, -13929.63, -102460.55, 24947.09, 0.00, 0.00, 0.00
215, -7769.42, -14996.54, -187500.02, -187500.02, -12181.16, -7547.78, 30939.04, 14539.83, -7293.22, -9311.51, -21409.64, 17115.31, -187500.02, -13929.63, -102460.55, 24947.09, 0.00, 0.00, 0.00
216, -7769.42, -14996.54, -187500.02, -187500.02, -12181.16, -7547.78, 30939.04, 14539.83, -7296.32, -9307.36, -21346.27, 17311.20, -187500.02, -13801.96, -102191.93, 25266.72, 0.00, 0.00, 0.00
217, -7750.69, -15000.14, -187500.02, -187500.02, -12218.54, -7567.54, 30938.17, 14557.11, -7296.32, -9307.36, -21346.27, 17311.20, -187500.02, -13801.96, -102191.93, 25266.72, -0.84, -0.41, 0.33
218, -7750.69, -15000.14, -187500.02, -187500.02, -12218.54, -7567.54, 30938.17, 14557.11, -7277.93, -9301.43, -21407.99, 17166.18, -187500.02, -13924.78, -102472.22, 24961.20, 0.00, 0.00, 0.00
219, -7764.55, -14988.01, -187500.02, -187500.02, -12182.15, -7543.02, 30946.97, 14557.27, -7277.93, -9301.43, -21407.99, 17166.18, -187500.02, -13924.78, -102472.22, 24961.20, 0.00, 0.00, 0.00
220, -7764.55, -14988.01, -187500.02, -187500.02, -12182.15, -7543.02, 30946.97, 14557.27, -7298.38, -9307.91, -21326.56, 17396.96, -187500.02, -13765.19, -102165.15, 25312.14, 0.00, 0.00, 0.00
221, -7761.08, -15007.65, -187500.02, -187500.02, -12219.18, -7518.95, 30999.19, 14641.35, -7298.38, -9307.91, -21326.56, 17396.96, -187500.02, -13765.19, -102165.15, 25312.14, 0.00, 0.00, 0.00
222, -7761.08, -15007.65, -187500.02, -187500.02, -12219.18, -7518.95, 30999.19, 14641.35, -7286.20, -9320.10, -21430.25, 17226.73, -187500.02, -13928.85, -102446.38, 25002.10, 0.00, 0.00, 0.00
223, -7778.09, -14998.94, -187500.02, -187500.02, -12195.00, -7554.24, 30931.57, 14537.57, -7286.20, -9320.10, -21430.25, 17226.73, -187500.02, -13928.85, -102446.38, 25002.10, 0.00, 0.00, 0.00
224, -7778.09, -14998.94, -187500.02, -187500.02, -12195.00, -7554.24, 30931.57, 14537.57, -7314.47, -9312.09, -21343.61, 17423.92, -187500.02, -13781.39, -102189.55, 25291.49, 0.00, 0.00, 0.00
225, -7777.89, -15013.44, -187500.02, -187500.02, -12220.28, -7508.89, 31005.91, 14651.43, -7314.47, -9312.09, -21343.61, 17423.92, -187500.02, -13781.39, -102189.55, 25291.49, 0.00, 0.00, 0.00
226, -7777.89, -15013.44, -187500.02, -187500.02, -12220.28, -7508.89, 31005.91, 14651.43, -7292.23, -9315.69, -21458.77, 17234.29, -187500.02, -13954.37, -102478.99, 24977.27, 0.00, 0.00, 0.00
227, -7781.74, -15002.07, -187500.02, -187500.02, -12206.04, -7603.66, 30866.53, 14452.15, -7292.23, -9315.69, -21458.77, 17234.29, -187500.02, -13954.37, -102478.99, 24977.27, -0.84, -0.41, 0.33
228, -7781.74, -15002.07, -187500.02, -187500.02, -12206.04, -7603.66, 30866.53, 14452.15, -7323.73, -9310.19, -21355.50, 17398.71, -187500.02, -13820.80, -102289.45, 25187.26, 0.00, 0.00, 0.00
229, -7785.51, -15019.68, -187500.02, -187500.02, -12218.27, -7509.09, 30997.60, 14628.99, -7323.73, -9310.19, -21355.50, 17398.71, -187500.02, -13820.80, -102289.45, 25187.26, 0.00, 0.00, 0.00
230, -7785.51, -15019.68, -187500.02, -187500.02, -12218.27, -7509.09, 30997.60, 14628.99, -7298.02, -9318.62, -21453.34, 17267.59, -187500.02, -13943.71, -102483.23, 24969.49, 0.00, 0.00, 0.00
231, -7780.40, -15004.73, -187500.02, -187500.02, -12211.52, -7606.54, 30858.35, 14416.58, -7298.02, -9318.62, -21453.34, 17267.59, -187500.02, -13943.71, -102483.23, 24969.49, 0.00, 0.00, 0.00
232, -7780.40, -15004.73, -187500.02, -187500.02, -12211.52, -7606.54, 30858.35, 14416.58, -7314.23, -9306.57, -21361.12, 17390.04, -187500.02, -13836.29, -102359.56, 25107.60, 0.00, 0.00, 0.00
233, -7770.92, -15004.17, -187500.02, -187500.02, -12205.68, -7518.25, 30981.13, 14597.97, -7314.23, -9306.57, -21361.12, 17390.04, -187500.02, -13836.29, -102359.56, 25107.60, 0.00, 0.00, 0.00
234, -7770.92, -15004.17, -187500.02, -187500.02, -12205.68, -7518.25, 30981.13, 14597.97, -7282.60, -9310.91, -21441.80, 17279.08, -187500.02, -13938.88, -102518.22, 24940.90, 0.00, 0.00, 0.00
235, -7757.78, -14991.29, -187500.02, -187500.02, -12217.02, -7645.37, 30810.16, 14347.09, -7282.60, -9310.91, -21441.80, 17279.08, -187500.02, -13938.88, -102518.22, 24940.90, 0.00, 0.00, 0.00
236, -7757.78, -14991.29, -187500.02, -187500.02, -12217.02, -7645.37, 30810.16, 14347.09, -7297.13, -9295.75, -21360.02, 17350.32, -187500.02, -13858.55, -102484.48, 24985.16, 0.00, 0.00, 0.00
237, -7769.62, -14993.75, -187500.02, -187500.02, -12207.23, -7532.83, 30954.06, 14559.10, -7297.13, -9295.75, -21360.02, 17350.32, -187500.02, -13858.55, -102484.48, 24985.16, -0.84, -0.41, 0.33
238, -7769.62, -14993.75, -187500.02, -187500.02, -12207.23, -7532.83, 30954.06, 14559.10, -7290.71, -9314.31, -21423.95, 17317.88, -187500.02, -13902.34, -102527.49, 24943.38, 0.00, 0.00, 0.00
239, -7760.50, -14989.50, -187500.02, -187500.02, -12233.44, -7649.71, 30796.14, 14323.78, -7290.71, -9314.31, -21423.95, 17317.88, -187500.02, -13902.34, -102527.49, 24943.38, 0.00, 0.00, 0.00
240, -7760.50, -14989.50, -187500.02, -187500.02, -12233.44, -7649.71, 30796.14, 14323.78, -7295.88, -9298.12, -21369.96, 17352.06, -187500.02, -13874.76, -102559.41, 24913.54, 0.00, 0.00, 0.00
241, -7767.59, -14982.66, -187500.02, -187500.02, -12209.75, -7537.86, 30933.76, 14531.81, -7295.88, -9298.12, -21369.96, 17352.06, -187500.02, -13874.76, -102559.41, 24913.54, 0.00, 0.00, 0.00
242, -7767.59, -14982.66, -187500.02, -187500.02, -12209.75, -7537.86, 30933.76, 14531.81, -7279.34, -9311.20, -21413.71, 17358.39, -187500.02, -13894.25, -102536.79, 24949.26, 0.00, 0.00, 0.00
243, -7763.99, -15001.13, -187500.02, -187500.02, -12234.56, -7650.31, 30786.40, 14303.24, -7279.34, -9311.20, -21413.71, 17358.39, -187500.02, -13894.25, -102536.79, 24949.26, 0.00, 0.00, 0.00
244, -7763.99, -15001.13, -187500.02, -187500.02, -12234.56, -7650.31, 30786.40, 14303.24, -7288.41, -9308.74, -21356.71, 17378.57, -187500.02, -13870.08, -102597.19, 24876.89, 0.00, 0.00, 0.00
245, -7770.58, -15003.47, -187500.02, -187500.02, -12187.91, -7510.14, 30954.86, 14537.93, -7288.41, -9308.74, -21356.71, 17378.57, -187500.02, -13870.08, -102597.19, 24876.89, 0.00, 0.00, 0.00
246, -7770.58, -15003.47, -187500.02, -187500.02, -12187.91, -7510.14, 30954.86, 14537.93, -7270.37, -9317.70, -21392.25, 17424.06, -187500.02, -13861.99, -102514.91, 24986.01, 0.00, 0.00, 0.00
247, -7748.52, -15003.09, -187500.02, -187500.02, -12230.49, -7650.31, 30784.65, 14296.89, -7270.37, -9317.70, -21392.25, 17424.06, -187500.02, -13861.99, -102514.91, 24986.01, -0.83, -0.41, 0.32
248, -7748.52, -15003.09, -187500.02, -187500.02, -12230.49, -7650.31, 30784.65, 14296.89, -7266.24, -9305.14, -21362.81, 17375.73, -187500.02, -13889.55, -102678.73, 24805.92, 0.00, 0.00, 0.00
249, -7762.40, -15002.89, -187500.02, -187500.02, -12176.89, -7524.96, 30925.58, 14496.92, -7266.24, -9305.14, -21362.81, 17375.73, -187500.02, -13889.55, -102678.73, 24805.92, 0.00, 0.00, 0.00
250, -7762.40, -15002.89, -187500.02, -187500.02, -12176.89, -7524.96, 30925.58, 14496.92, -7256.81, -9314.15, -21368.63, 17477.68, -187500.02, -13836.22, -102517.99, 25003.38, 0.00, 0.00, 0.00
251, -7734.73, -14998.71, -187500.02, -187500.02, -12226.22, -7652.05, 30778.17, 14296.20, -7256.81, -9314.15, -21368.63, 17477.68, -187500.02, -13836.22, -102517.99, 25003.38, 0.00, 0.00, 0.00
252, -7734.73, -14998.71, -187500.02, -187500.02, -12226.22, -7652.05, 30778.17, 14296.20, -7256.20, -9297.43, -21360.04, 17398.93, -187500.02, -13888.88, -102728.48, 24775.79, 0.00, 0.00, 0.00
253, -7753.57, -14994.87, -187500.02, -187500.02, -12181.01, -7544.74, 30897.84, 14464.44, -7256.20, -9297.43, -21360.04, 17398.93, -187500.02, -13888.88, -102728.48, 24775.79, 0.00, 0.00, 0.00
254, -7753.57, -14994.87, -187500.02, -187500.02, -12181.01, -7544.74, 30897.84, 14464.44, -7258.39, -9308.05, -21356.87, 17529.71, -187500.02, -13813.78, -102529.03, 25019.76, 0.00, 0.00, 0.00
255, -7740.72, -14997.17, -187500.02, -187500.02, -12235.81, -7629.41, 30805.20, 14334.87, -7258.39, -9308.05, -21356.87, 17529.71, -187500.02, -13813.78, -102529.03, 25019.76, 0.00, 0.00, 0.00
0, -7740.72, -14997.17, -187500.02, -187500.02, -12235.81, -7629.41, 30805.20, 14334.87, -7261.01, -9305.05, -21377.03, 17437.22, -187500.02, -13890.51, -102761.49, 24764.57, 0.00, 0.00, 0.00
1, -7748.95, -14983.25, -187500.02, -187500.02, -12185.79, -7541.25, 30888.88, 14455.07, -7261.01, -9305.05, -21377.03, 17437.22, -187500.02, -13890.51, -102761.49, 24764.57, -0.84, -0.41, 0.32
2, -7748.95, -14983.25, -187500.02, -187500.02, -12185.79, -7541.25, 30888.88, 14455.07, -7260.65, -9302.04, -21338.36, 17604.08, -187500.02, -13784.05, -102519.47, 25057.00, 0.00, 0.00, 0.00
3, -7734.93, -14992.21, -187500.02, -187500.02, -12234.76, -7595.26, 30830.63, 14376.26, -7260.65, -9302.04, -21338.36, 17604.08, -187500.02, -13784.05, -102519.47, 25057.00, 0.00, 0.00, 0.00
4, -7734.93, -14992.21, -187500.02, -187500.02, -12234.76, -7595.26, 30830.63, 14376.26, -7257.34, -9292.87, -21395.85, 17457.31, -187500.02, -13905.15, -102806.91, 24742.93, 0.00, 0.00, 0.00
5, -7745.10, -14976.45, -187500.02, -187500.02, -12196.74, -7569.53, 30836.53, 14396.85, -7257.34, -9292.87, -21395.85, 17457.31, -187500.02, -13905.15, -102806.91, 24742.93, 0.00, 0.00, 0.00
6, -7745.10, -14976.45, -187500.02, -187500.02, -12196.74, -7569.53, 30836.53, 14396.85, -7272.10, -9289.16, -21340.35, 17627.52, -187500.02, -13786.00, -102570.23, 25035.23, 0.00, 0.00, 0.00
7, -7739.78, -14989.79, -187500.02, -187500.02, -12245.36, -7605.38, 30810.58, 14368.84, -7272.10, -9289.16, -21340.35, 17627.52, -187500.02, -13786.00, -102570.23, 25035.23, 0.00, 0.00, 0.00
8, -7739.78, -14989.79, -187500.02, -187500.02, -12245.36, -7605.38, 30810.58, 14368.84, -7282.31, -9298.33, -21411.90, 17477.32, -187500.02, -13908.66, -102850.48, 24725.03, 0.00, 0.00, 0.00
9, -7758.40, -14992.88, -187500.02, -187500.02, -12211.12, -7593.31, 30810.43, 14363.07, -7282.31, -9298.33, -21411.90, 17477.32, -187500.02, -13908.66, -102850.48, 24725.03, 0.00, 0.00, 0.00
10, -7758.40, -14992.88, -187500.02, -187500.02, -12211.12, -7593.31, 30810.43, 14363.07, -7290.51, -9295.29, -21350.21, 17661.37, -187500.02, -13781.50, -102589.97, 25028.59, 0.00, 0.00, 0.00
11, -7743.20, -15005.71, -187500.02, -187500.02, -12243.32, -7623.31, 30802.54, 14374.72, -7290.51, -9295.29, -21350.21, 17661.37, -187500.02, -13781.50, -102589.97, 25028.59, -0.84, -0.41, 0.33
12, -7743.20, -15005.71, -187500.02, -187500.02, -12243.32, -7623.31, 30802.54, 14374.72, -7273.37, -9304.18, -21430.43, 17475.73, -187500.02, -13935.22, -102897.73, 24688.71, 0.00, 0.00, 0.00
13, -7754.56, -14992.45, -187500.02, -187500.02, -12212.39, -7651.54, 30748.33, 14290.36, -7273.37, -9304.18, -21430.43, 17475.73, -187500.02, -13935.22, -102897.73, 24688.71, 0.00, 0.00, 0.00
14, -7754.56, -14992.45, -187500.02, -187500.02, -12212.39, -7651.54, 30748.33, 14290.36, -7290.16, -9300.11, -21331.90, 17677.01, -187500.02, -13770.10, -102623.13, 24994.48, 0.00, 0.00, 0.00
15, -7742.24, -15007.54, -187500.02, -187500.02, -12235.08, -7606.07, 30824.17, 14395.71, -7290.16, -9300.11, -21331.90, 17677.01, -187500.02, -13770.10, -102623.13, 24994.48, 0.00, 0.00, 0.00
16, -7742.24, -15007.54, -187500.02, -187500.02, -12235.08, -7606.07, 30824.17, 14395.71, -7268.81, -9305.88, -21427.12, 17495.89, -187500.02, -13921.90, -102902.11, 24685.13, 0.00, 0.00, 0.00
17, -7736.39, -14992.70, -187500.02, -187500.02, -12213.89, -7678.87, 30710.40, 14232.92, -7268.81, -9305.88, -21427.12, 17495.89, -187500.02, -13921.90, -102902.11, 24685.13, 0.00, 0.00, 0.00
18, -7736.39, -14992.70, -187500.02, -187500.02, -12213.89, -7678.87, 30710.40, 14232.92, -7271.47, -9288.22, -21329.40, 17634.95, -187500.02, -13800.15, -102734.05, 24885.13, 0.00, 0.00, 0.00
19, -7733.70, -15004.66, -187500.02, -187500.02, -12218.96, -7611.17, 30801.04, 14363.72, -7271.47, -9288.22, -21329.40, 17634.95, -187500.02, -13800.15, -102734.05, 24885.13, 0.00, 0.00, 0.00
20, -7733.70, -15004.66, -187500.02, -187500.02, -12218.96, -7611.17, 30801.04, 14363.72, -7258.30, -9310.93, -21422.92, 17483.85, -187500.02, -13930.68, -102971.89, 24621.72, 0.00, 0.00, 0.00
21, -7730.33, -14996.72, -187500.02, -187500.02, -12216.10, -7711.31, 30641.36, 14133.19, -7258.30, -9310.93, -21422.92, 17483.85, -187500.02, -13930.68, -102971.89, 24621.72, -0.83, -0.41, 0.33
22, -7730.33, -14996.72, -187500.02, -187500.02, -12216.10, -7711.31, 30641.36, 14133.19, -7276.90, -9295.78, -21324.55, 17613.29, -187500.02, -13816.51, -102850.56, 24762.60, 0.00, 0.00, 0.00
23, -7729.79, -15001.40, -187500.02, -187500.02, -12207.16, -7593.31, 30773.48, 14317.54, -7276.90, -9295.78, -21324.55, 17613.29, -187500.02, -13816.51, -102850.56, 24762.60, 0.00, 0.00, 0.00
24, -7729.79, -15001.40, -187500.02, -187500.02, -12207.16, -7593.31, 30773.48, 14317.54, -7255.09, -9305.12, -21411.41, 17512.37, -187500.02, -13910.88, -103017.53, 24583.43, 0.00, 0.00, 0.00
25, -7735.31, -14995.81, -187500.02, -187500.02, -12209.51, -7658.80, 30648.11, 14119.55, -7255.09, -9305.12, -21411.41, 17512.37, -187500.02, -13910.88, -103017.53, 24583.43, 0.00, 0.00, 0.00
26, -7735.31, -14995.81, -187500.02, -187500.02, -12209.51, -7658.80, 30648.11, 14119.55, -7285.42, -9294.55, -21318.49, 17660.87, -187500.02, -13785.42, -102884.79, 24729.63, 0.00, 0.00, 0.00
27, -7732.07, -14999.03, -187500.02, -187500.02, -12204.57, -7524.54, 30807.56, 14347.83, -7285.42, -9294.55, -21318.49, 17660.87, -187500.02, -13785.42, -102884.79, 24729.63, 0.00, 0.00, 0.00
28, -7732.07, -14999.03, -187500.02, -187500.02, -12204.57, -7524.54, 30807.56, 14347.83, -7251.98, -9305.63, -21423.07, 17545.89, -187500.02, -13904.59, -103043.15, 24580.79, 0.00, 0.00, 0.00
29, -7719.53, -14993.13, -187500.02, -187500.02, -12224.59, -7687.75, 30589.41, 14048.72, -7251.98, -9305.63, -21423.07, 17545.89, -187500.02, -13904.59, -103043.15, 24580.79, 0.00, 0.00, 0.00
30, -7719.53, -14993.13, -187500.02, -187500.02, -12224.59, -7687.75, 30589.41, 14048.72, -7282.29, -9297.14, -21336.64, 17606.40, -187500.02, -13842.66, -103050.70, 24586.34, 0.00, 0.00, 0.00
31, -7739.56, -15007.70, -187500.02, -187500.02, -12201.19, -7543.98, 30762.82, 14290.48, -7282.29, -9297.14, -21336.64, 17606.40, -187500.02, -13842.66, -103050.70, 24586.34, -0.84, -0.41, 0.33
32, -7739.56, -15007.70, -187500.02, -187500.02, -12201.19, -7543.98, 30762.82, 14290.48, -7267.83, -9310.28, -21396.90, 17597.06, -187500.02, -13872.30, -103063.60, 24594.32, 0.00, 0.00, 0.00
33, -7724.74, -15000.99, -187500.02, -187500.02, -12225.89, -7673.09, 30592.61, 14047.67, -7267.83, -9310.28, -21396.90, 17597.06, -187500.02, -13872.30, -103063.60, 24594.32, 0.00, 0.00, 0.00
34, -7724.74, -15000.99, -187500.02, -187500.02, -12225.89, -7673.09, 30592.61, 14047.67, -7280.07, -9293.05, -21335.39, 17630.99, -187500.02, -13836.60, -103108.48, 24552.23, 0.00, 0.00, 0.00
35, -7739.29, -14998.33, -187500.02, -187500.02, -12183.53, -7516.18, 30781.37, 14310.75, -7280.07, -9293.05, -21335.39, 17630.99, -187500.02, -13836.60, -103108.48, 24552.23, 0.00, 0.00, 0.00
36, -7739.29, -14998.33, -187500.02, -187500.02, -12183.53, -7516.18, 30781.37, 14310.75, -7268.99, -9310.64, -21386.10, 17660.43, -187500.02, -13846.21, -103045.05, 24643.02, 0.00, 0.00, 0.00
37, -7724.65, -14996.92, -187500.02, -187500.02, -12226.85, -7656.61, 30610.60, 14069.95, -7268.99, -9310.64, -21386.10, 17660.43, -187500.02, -13846.21, -103045.05, 24643.02, 0.00, 0.00, 0.00
38, -7724.65, -14996.92, -187500.02, -187500.02, -12226.85, -7656.61, 30610.60, 14069.95, -7269.19, -9299.44, -21351.19, 17631.86, -187500.02, -13863.13, -103174.69, 24506.16, 0.00, 0.00, 0.00
39, -7727.29, -14990.26, -187500.02, -187500.02, -12176.72, -7519.80, 30770.01, 14293.14, -7269.19, -9299.44, -21351.19, 17631.86, -187500.02, -13863.13, -103174.69, 24506.16, 0.00, 0.00, 0.00
40, -7727.29, -14990.26, -187500.02, -187500.02, -12176.72, -7519.80, 30770.01, 14293.14, -7257.34, -9304.32, -21359.13, 17718.09, -187500.02, -13817.51, -103028.93, 24683.52, 0.00, 0.00, 0.00
41, -7715.15, -14994.18, -187500.02, -187500.02, -12219.32, -7623.15, 30646.63, 14105.67, -7257.34, -9304.32, -21359.13, 17718.09, -187500.02, -13817.51, -103028.93, 24683.52, -0.83, -0.41, 0.32
42, -7715.15, -14994.18, -187500.02, -187500.02, -12219.32, -7623.15, 30646.63, 14105.67, -7253.57, -9294.28, -21355.28, 17639.97, -187500.02, -13872.16, -103225.49, 24475.54, 0.00, 0.00, 0.00
43, -7722.39, -14985.30, -187500.02, -187500.02, -12165.36, -7534.66, 30740.91, 14253.95, -7253.57, -9294.28, -21355.28, 17639.97, -187500.02, -13872.16, -103225.49, 24475.54, 0.00, 0.00, 0.00
44, -7722.39, -14985.30, -187500.02, -187500.02, -12165.36, -7534.66, 30740.91, 14253.95, -7244.20, -9311.63, -21357.58, 17722.34, -187500.02, -13827.26, -103081.64, 24669.91, 0.00, 0.00, 0.00
45, -7714.06, -14996.63, -187500.02, -187500.02, -12211.21, -7636.32, 30619.79, 14084.88, -7244.20, -9311.63, -21357.58, 17722.34, -187500.02, -13827.26, -103081.64, 24669.91, 0.00, 0.00, 0.00
46, -7714.06, -14996.63, -187500.02, -187500.02, -12211.21, -7636.32, 30619.79, 14084.88, -7257.01, -9305.84, -21355.64, 17647.21, -187500.02, -13875.69, -103284.23, 24449.70, 0.00, 0.00, 0.00
47, -7729.50, -14992.86, -187500.02, -187500.02, -12157.63, -7498.67, 30766.17, 14272.82, -7257.01, -9305.84, -21355.64, 17647.21, -187500.02, -13875.69, -103284.23, 24449.70, 0.00, 0.00, 0.00
48, -7729.50, -14992.86, -187500.02, -187500.02, -12157.63, -7498.67, 30766.17, 14272.82, -7255.85, -9309.57, -21336.77, 17811.70, -187500.02, -13773.37, -103034.72, 24753.30, 0.00, 0.00, 0.00
49, -7711.93, -15000.79, -187500.02, -187500.02, -12211.45, -7580.57, 30684.99, 14173.67, -7255.85, -9309.57, -21336.77, 17811.70, -187500.02, -13773.37, -103034.72, 24753.30, 0.00, 0.00, 0.00
50, -7711.93, -15000.79, -187500.02, -187500.02, -12211.45, -7580.57, 30684.99, 14173.67, -7250.21, -9302.28, -21385.52, 17667.53, -187500.02, -13896.33, -103317.94, 24449.30, 0.00, 0.00, 0.00
51, -7721.23, -14983.36, -187500.02, -187500.02, -12161.03, -7544.88, 30712.46, 14231.94, -7250.21, -9302.28, -21385.52, 17667.53, -187500.02, -13896.33, -103317.94, 24449.30, -0.83, -0.41, 0.32
52, -7721.23, -14983.36, -187500.02, -187500.02, -12161.03, -7544.88, 30712.46, 14231.94, -7260.14, -9306.93, -21332.39, 17836.09, -187500.02, -13778.55, -103067.94, 24757.48, 0.00, 0.00, 0.00
53, -7714.37, -15000.66, -187500.02, -187500.02, -12213.19, -7570.16, 30699.74, 14215.49, -7260.14, -9306.93, -21332.39, 17836.09, -187500.02, -13778.55, -103067.94, 24757.48, 0.00, 0.00, 0.00
54, -7714.37, -15000.66, -187500.02, -187500.02, -12213.19, -7570.16, 30699.74, 14215.49, -7246.23, -9308.32, -21386.48, 17700.37, -187500.02, -13891.72, -103332.60, 24469.86, 0.00, 0.00, 0.00
55, -7714.01, -14982.71, -187500.02, -187500.02, -12177.07, -7540.18, 30714.20, 14237.50, -7246.23, -9308.32, -21386.48, 17700.37, -187500.02, -13891.72, -103332.60, 24469.86, 0.00, 0.00, 0.00
56, -7714.01, -14982.71, -187500.02, -187500.02, -12177.07, -7540.18, 30714.20, 14237.50, -7249.30, -9305.03, -21314.31, 17883.99, -187500.02, -13763.64, -103068.90, 24788.51, 0.00, 0.00, 0.00
57, -7706.75, -14991.63, -187500.02, -187500.02, -12214.78, -7545.66, 30725.94, 14264.32, -7249.30, -9305.03, -21314.31, 17883.99, -187500.02, -13763.64, -103068.90, 24788.51, 0.00, 0.00, 0.00
58, -7706.75, -14991.63, -187500.02, -187500.02, -12214.78, -7545.66, 30725.94, 14264.32, -7241.43, -9306.95, -21385.37, 17724.69, -187500.02, -13895.79, -103346.39, 24488.26, 0.00, 0.00, 0.00
59, -7718.26, -14982.26, -187500.02, -187500.02, -12180.67, -7553.12, 30692.54, 14218.82, -7241.43, -9306.95, -21385.37, 17724.69, -187500.02, -13895.79, -103346.39, 24488.26, 0.00, 0.00, 0.00
60, -7718.26, -14982.26, -187500.02, -187500.02, -12180.67, -7553.12, 30692.54, 14218.82, -7243.17, -9302.10, -21308.34, 17899.88, -187500.02, -13764.56, -103101.55, 24788.53, 0.00, 0.00, 0.00
61, -7707.33, -14994.69, -187500.02, -187500.02, -12200.05, -7534.21, 30736.58, 14295.21, -7243.17, -9302.10, -21308.34, 17899.88, -187500.02, -13764.56, -103101.55, 24788.53, -0.83, -0.41, 0.32
62, -7707.33, -14994.69, -187500.02, -187500.02, -12200.05, -7534.21, 30736.58, 14295.21, -7237.18, -9309.97, -21393.66, 17741.70, -187500.02, -13898.65, -103365.03, 24510.21, 0.00, 0.00, 0.00
63, -7719.76, -14984.32, -187500.02, -187500.02, -12171.17, -7562.65, 30681.19, 14209.63, -7237.18, -9309.97, -21393.66, 17741.70, -187500.02, -13898.65, -103365.03, 24510.21, 0.00, 0.00, 0.00
64, -7719.76, -14984.32, -187500.02, -187500.02, -12171.17, -7562.65, 30681.19, 14209.63, -7266.37, -9306.19, -21300.54, 17934.10, -187500.02, -13747.78, -103114.34, 24811.35, 0.00, 0.00, 0.00
65, -7730.78, -14999.67, -187500.02, -187500.02, -12181.90, -7463.07, 30814.25, 14396.87, -7266.37, -9306.19, -21300.54, 17934.10, -187500.02, -13747.78, -103114.34, 24811.35, 0.00, 0.00, 0.00
66, -7730.78, -14999.67, -187500.02, -187500.02, -12181.90, -7463.07, 30814.25, 14396.87, -7248.45, -9321.77, -21395.71, 17816.84, -187500.02, -13864.90, -103294.34, 24624.04, 0.00, 0.00, 0.00
67, -7724.34, -14989.57, -187500.02, -187500.02, -12180.92, -7534.88, 30704.01, 14248.16, -7248.45, -9321.77, -21395.71, 17816.84, -187500.02, -13864.90, -103294.34, 24624.04, 0.00, 0.00, 0.00
68, -7724.34, -14989.57, -187500.02, -187500.02, -12180.92, -7534.88, 30704.01, 14248.16, -7272.72, -9314.69, -21308.30, 17968.05, -187500.02, -13756.29, -103105.45, 24860.08, 0.00, 0.00, 0.00
69, -7720.18, -14995.94, -187500.02, -187500.02, -12181.79, -7452.34, 30824.57, 14435.14, -7272.72, -9314.69, -21308.30, 17968.05, -187500.02, -13756.29, -103105.45, 24860.08, 0.00, 0.00, 0.00
70, -7720.18, -14995.94, -187500.02, -187500.02, -12181.79, -7452.34, 30824.57, 14435.14, -7245.99, -9324.66, -21409.69, 17827.15, -187500.02, -13893.08, -103303.21, 24662.87, 0.00, 0.00, 0.00
71, -7726.73, -14987.96, -187500.02, -187500.02, -12183.15, -7560.08, 30673.77, 14227.26, -7245.99, -9324.66, -21409.69, 17827.15, -187500.02, -13893.08, -103303.21, 24662.87, -0.83, -0.42, 0.31
72, -7726.73, -14987.96, -187500.02, -187500.02, -12183.15, -7560.08, 30673.77, 14227.26, -7271.94, -9306.42, -21318.33, 17950.51, -187500.02, -13784.45, -103173.97, 24825.99, 0.00, 0.00, 0.00
73, -7731.74, -14994.53, -187500.02, -187500.02, -12172.02, -7453.30, 30822.12, 14448.30, -7271.94, -9306.42, -21318.33, 17950.51, -187500.02, -13784.45, -103173.97, 24825.99, 0.00, 0.00, 0.00
74, -7731.74, -14994.53, -187500.02, -187500.02, -12172.02, -7453.30, 30822.12, 14448.30, -7261.61, -9319.98, -21389.75, 17886.94, -187500.02, -13849.83, -103252.63, 24752.92, 0.00, 0.00, 0.00
75, -7719.73, -14983.29, -187500.02, -187500.02, -12190.84, -7559.43, 30690.62, 14251.47, -7261.61, -9319.98, -21389.75, 17886.94, -187500.02, -13849.83, -103252.63, 24752.92, 0.00, 0.00, 0.00
76, -7719.73, -14983.29, -187500.02, -187500.02, -12190.84, -7559.43, 30690.62, 14251.47, -7263.71, -9298.66, -21320.86, 17953.37, -187500.02, -13787.76, -103204.69, 24827.09, 0.00, 0.00, 0.00
77, -7724.02, -14981.10, -187500.02, -187500.02, -12172.87, -7472.99, 30817.49, 14456.55, -7263.71, -9298.66, -21320.86, 17953.37, -187500.02, -13787.76, -103204.69, 24827.09, 0.00, 0.00, 0.00
78, -7724.02, -14981.10, -187500.02, -187500.02, -12172.87, -7472.99, 30817.49, 14456.55, -7253.97, -9310.64, -21388.09, 17888.88, -187500.02, -13853.52, -103269.15, 24780.37, 0.00, 0.00, 0.00
79, -7717.72, -14988.48, -187500.02, -187500.02, -12207.32, -7604.33, 30651.15, 14218.08, -7253.97, -9310.64, -21388.09, 17888.88, -187500.02, -13853.52, -103269.15, 24780.37, 0.00, 0.00, 0.00
80, -7717.72, -14988.48, -187500.02, -187500.02, -12207.32, -7604.33, 30651.15, 14218.08, -7267.31, -9299.87, -21323.00, 17928.98, -187500.02, -13805.08, -103279.23, 24781.83, 0.00, 0.00, 0.00
81, -7729.28, -14985.06, -187500.02, -187500.02, -12162.23, -7471.09, 30818.49, 14462.34, -7267.31, -9299.87, -21323.00, 17928.98, -187500.02, -13805.08, -103279.23, 24781.83, -0.83, -0.42, 0.32
82, -7729.28, -14985.06, -187500.02, -187500.02, -12162.23, -7471.09, 30818.49, 14462.34, -7256.63, -9313.77, -21367.71, 17939.33, -187500.02, -13816.46, -103231.95, 24853.24, 0.00, 0.00, 0.00
83, -7719.91, -14986.15, -187500.02, -187500.02, -12196.88, -7583.68, 30674.30, 14247.49, -7256.63, -9313.77, -21367.71, 17939.33, -187500.02, -13816.46, -103231.95, 24853.24, 0.00, 0.00, 0.00
84, -7719.91, -14986.15, -187500.02, -187500.02, -12196.88, -7583.68, 30674.30, 14247.49, -7270.62, -9298.17, -21327.65, 17930.14, -187500.02, -13813.62, -103313.41, 24770.56, 0.00, 0.00, 0.00
85, -7728.56, -14981.57, -187500.02, -187500.02, -12159.73, -7450.93, 30828.89, 14476.98, -7270.62, -9298.17, -21327.65, 17930.14, -187500.02, -13813.62, -103313.41, 24770.56, 0.00, 0.00, 0.00
86, -7728.56, -14981.57, -187500.02, -187500.02, -12159.73, -7450.93, 30828.89, 14476.98, -7259.00, -9306.26, -21366.77, 17968.97, -187500.02, -13802.54, -103221.00, 24903.24, 0.00, 0.00, 0.00
87, -7718.73, -14987.02, -187500.02, -187500.02, -12195.29, -7575.05, 30676.43, 14265.69, -7259.00, -9306.26, -21366.77, 17968.97, -187500.02, -13802.54, -103221.00, 24903.24, 0.00, 0.00, 0.00
88, -7718.73, -14987.02, -187500.02, -187500.02, -12195.29, -7575.05, 30676.43, 14265.69, -7273.44, -9301.37, -21343.72, 17924.33, -187500.02, -13820.58, -103358.93, 24759.47, 0.00, 0.00, 0.00
89, -7738.40, -14988.65, -187500.02, -187500.02, -12146.34, -7433.12, 30844.22, 14502.15, -7273.44, -9301.37, -21343.72, 17924.33, -187500.02, -13820.58, -103358.93, 24759.47, 0.00, 0.00, 0.00
90, -7738.40, -14988.65, -187500.02, -187500.02, -12146.34, -7433.12, 30844.22, 14502.15, -7275.83, -9315.25, -21347.64, 18038.48, -187500.02, -13750.59, -103153.19, 25008.36, 0.00, 0.00, 0.00
91, -7726.19, -14993.06, -187500.02, -187500.02, -12202.89, -7521.88, 30745.07, 14360.10, -7275.83, -9315.25, -21347.64, 18038.48, -187500.02, -13750.59, -103153.19, 25008.36, -0.83, -0.41, 0.32
92, -7726.19, -14993.06, -187500.02, -187500.02, -12202.89, -7521.88, 30745.07, 14360.10, -7274.89, -9310.64, -21365.99, 17932.18, -187500.02, -13829.07, -103364.30, 24787.55, 0.00, 0.00, 0.00
93, -7747.27, -14982.84, -187500.02, -187500.02, -12151.86, -7418.50, 30859.40, 14528.77, -7274.89, -9310.64, -21365.99, 17932.18, -187500.02, -13829.07, -103364.30, 24787.55, 0.00, 0.00, 0.00
94, -7747.27, -14982.84, -187500.02, -187500.02, -12151.86, -7418.50, 30859.40, 14528.77, -7277.24, -9311.78, -21342.16, 18074.78, -187500.02, -13736.00, -103117.27, 25083.78, 0.00, 0.00, 0.00
95, -7727.04, -14996.88, -187500.02, -187500.02, -12197.30, -7491.83, 30785.62, 14427.22, -7277.24, -9311.78, -21342.16, 18074.78, -187500.02, -13736.00, -103117.27, 25083.78, 0.00, 0.00, 0.00
96, -7727.04, -14996.88, -187500.02, -187500.02, -12197.30, -7491.83, 30785.62, 14427.22, -7273.59, -9308.79, -21374.28, 17933.61, -187500.02, -13844.36, -103370.69, 24812.56, 0.00, 0.00, 0.00
97, -7739.36, -14985.86, -187500.02, -187500.02, -12145.67, -7416.29, 30866.66, 14545.24, -7273.59, -9308.79, -21374.28, 17933.61, -187500.02, -13844.36, -103370.69, 24812.56, 0.00, 0.00, 0.00
98, -7739.36, -14985.86, -187500.02, -187500.02, -12145.67, -7416.29, 30866.66, 14545.24, -7279.16, -9314.24, -21331.79, 18086.74, -187500.02, -13736.13, -103112.21, 25123.90, 0.00, 0.00, 0.00
99, -7722.93, -14996.88, -187500.02, -187500.02, -12196.01, -7452.50, 30839.77, 14503.15, -7279.16, -9314.24, -21331.79, 18086.74, -187500.02, -13736.13, -103112.21, 25123.90, 0.00, 0.00, 0.00
100, -7722.93, -14996.88, -187500.02, -187500.02, -12196.01, -7452.50, 30839.77, 14503.15, -7270.60, -9307.56, -21384.00, 17933.85, -187500.02, -13855.40, -103373.22, 24835.87, 0.00, 0.00, 0.00
101, -7737.70, -14987.78, -187500.02, -187500.02, -12156.51, -7424.24, 30857.70, 14535.74, -7270.60, -9307.56, -21384.00, 17933.85, -187500.02, -13855.40, -103373.22, 24835.87, -0.83, -0.41, 0.31
102, -7737.70, -14987.78, -187500.02, -187500.02, -12156.51, -7424.24, 30857.70, 14535.74, -7276.77, -9309.34, -21327.86, 18080.75, -187500.02, -13747.89, -103126.79, 25137.46, 0.00, 0.00, 0.00
103, -7725.19, -14997.95, -187500.02, -187500.02, -12194.15, -7442.42, 30853.56, 14538.33, -7276.77, -9309.34, -21327.86, 18080.75, -187500.02, -13747.89, -103126.79, 25137.46, 0.00, 0.00, 0.00
104, -7725.19, -14997.95, -187500.02, -187500.02, -12194.15, -7442.42, 30853.56, 14538.33, -7267.13, -9312.88, -21386.35, 17924.69, -187500.02, -13864.00, -103384.23, 24851.36, 0.00, 0.00, 0.00
105, -7734.31, -14986.22, -187500.02, -187500.02, -12157.23, -7426.05, 30854.10, 14540.55, -7267.13, -9312.88, -21386.35, 17924.69, -187500.02, -13864.00, -103384.23, 24851.36, 0.00, 0.00, 0.00
106, -7734.31, -14986.22, -187500.02, -187500.02, -12157.23, -7426.05, 30854.10, 14540.55, -7273.26, -9306.51, -21311.11, 18093.40, -187500.02, -13732.31, -103113.96, 25174.14, 0.00, 0.00, 0.00
107, -7734.26, -15000.28, -187500.02, -187500.02, -12189.05, -7395.63, 30915.08, 14632.99, -7273.26, -9306.51, -21311.11, 18093.40, -187500.02, -13732.31, -103113.96, 25174.14, 0.00, 0.00, 0.00
108, -7734.26, -15000.28, -187500.02, -187500.02, -12189.05, -7395.63, 30915.08, 14632.99, -7263.49, -9309.12, -21393.84, 17938.50, -187500.02, -13858.01, -103347.84, 24919.45, 0.00, 0.00, 0.00
109, -7740.45, -14985.68, -187500.02, -187500.02, -12166.32, -7426.55, 30865.32, 14571.97, -7263.49, -9309.12, -21393.84, 17938.50, -187500.02, -13858.01, -103347.84, 24919.45, 0.00, 0.00, 0.00
110, -7740.45, -14985.68, -187500.02, -187500.02, -12166.32, -7426.55, 30865.32, 14571.97, -7287.34, -9303.87, -21306.29, 18125.32, -187500.02, -13709.67, -103069.52, 25251.28, -0.84, -0.41, 0.32
111, -7739.54, -14998.98, -187500.02, -187500.02, -12185.43, -7373.30, 30962.71, 14726.40, -7287.34, -9303.87, -21306.29, 18125.32, -187500.02, -13709.67, -103069.52, 25251.28, 0.00, 0.00, 0.00
112, -7739.54, -14998.98, -187500.02, -187500.02, -12185.43, -7373.30, 30962.71, 14726.40, -7267.65, -9314.06, -21396.88, 17976.93, -187500.02, -13843.55, -103279.52, 25030.15, 0.00, 0.00, 0.00
113, -7742.51, -14987.29, -187500.02, -187500.02, -12165.61, -7419.97, 30899.54, 14641.15, -7267.65, -9314.06, -21396.88, 17976.93, -187500.02, -13843.55, -103279.52, 25030.15, 0.00, 0.00, 0.00
114, -7742.51, -14987.29, -187500.02, -187500.02, -12165.61, -7419.97, 30899.54, 14641.15, -7284.61, -9304.81, -21304.74, 18151.81, -187500.02, -13705.08, -103026.74, 25327.34, 0.00, 0.00, 0.00
115, -7739.63, -14999.32, -187500.02, -187500.02, -12176.78, -7362.98, 31008.80, 14823.94, -7284.61, -9304.81, -21304.74, 18151.81, -187500.02, -13705.08, -103026.74, 25327.34, 0.00, 0.00, 0.00
116, -7739.63, -14999.32, -187500.02, -187500.02, -12176.78, -7362.98, 31008.80, 14823.94, -7263.98, -9315.38, -21402.93, 18001.42, -187500.02, -13841.21, -103216.10, 25137.13, 0.00, 0.00, 0.00
117, -7738.84, -14988.27, -187500.02, -187500.02, -12174.97, -7463.85, 30884.43, 14656.40, -7263.98, -9315.38, -21402.93, 18001.42, -187500.02, -13841.21, -103216.10, 25137.13, 0.00, 0.00, 0.00
118, -7738.84, -14988.27, -187500.02, -187500.02, -12174.97, -7463.85, 30884.43, 14656.40, -7287.99, -9301.99, -21297.01, 18146.84, -187500.02, -13711.25, -103020.48, 25370.30, 0.00, 0.00, 0.00
119, -7745.86, -14999.83, -187500.02, -187500.02, -12165.09, -7326.01, 31076.39, 14927.32, -7287.99, -9301.99, -21297.01, 18146.84, -187500.02, -13711.25, -103020.48, 25370.30, 0.00, 0.00, 0.00
120, -7745.86, -14999.83, -187500.02, -187500.02, -12165.09, -7326.01, 31076.39, 14927.32, -7268.16, -9318.24, -21381.79, 18072.57, -187500.02, -13793.71, -103087.72, 25303.83, -0.84, -0.41, 0.32
121, -7741.88, -14986.84, -187500.02, -187500.02, -12175.31, -7436.85, 30937.36, 14737.20, -7268.16, -9318.24, -21381.79, 18072.57, -187500.02, -13793.71, -103087.72, 25303.83, 0.00, 0.00, 0.00
122, -7741.88, -14986.84, -187500.02, -187500.02, -12175.31, -7436.85, 30937.36, 14737.20, -7289.95, -9305.23, -21310.09, 18155.92, -187500.02, -13719.59, -102974.53, 25440.06, 0.00, 0.00, 0.00
123, -7750.76, -14994.42, -187500.02, -187500.02, -12163.01, -7318.70, 31105.96, 14991.43, -7289.95, -9305.23, -21310.09, 18155.92, -187500.02, -13719.59, -102974.53, 25440.06, 0.00, 0.00, 0.00
124, -7750.76, -14994.42, -187500.02, -187500.02, -12163.01, -7318.70, 31105.96, 14991.43, -7273.50, -9324.52, -21391.67, 18085.00, -187500.02, -13798.49, -103013.91, 25408.75, 0.00, 0.00, 0.00
125, -7749.13, -14992.28, -187500.02, -187500.02, -12187.98, -7439.53, 30957.99, 14780.83, -7273.50, -9324.52, -21391.67, 18085.00, -187500.02, -13798.49, -103013.91, 25408.75, 0.00, 0.00, 0.00
126, -7749.13, -14992.28, -187500.02, -187500.02, -12187.98, -7439.53, 30957.99, 14780.83, -7291.27, -9309.68, -21324.81, 18137.72, -187500.02, -13743.24, -102958.08, 25475.69, 0.00, 0.00, 0.00
127, -7751.99, -14997.75, -187500.02, -187500.02, -12156.55, -7303.81, 31138.48, 15047.51, -7291.27, -9309.68, -21324.81, 18137.72, -187500.02, -13743.24, -102958.08, 25475.69, 0.00, 0.00, 0.00
128, -7751.99, -14997.75, -187500.02, -187500.02, -12156.55, -7303.81, 31138.48, 15047.51, -7272.74, -9320.70, -21380.90, 18109.18, -187500.02, -13783.96, -102928.91, 25525.76, 0.00, 0.00, 0.00
129, -7739.47, -14997.06, -187500.02, -187500.02, -12184.94, -7430.79, 30986.60, 14832.08, -7272.74, -9320.70, -21380.90, 18109.18, -187500.02, -13783.96, -102928.91, 25525.76, 0.00, 0.00, 0.00
130, -7739.47, -14997.06, -187500.02, -187500.02, -12184.94, -7430.79, 30986.60, 14832.08, -7279.47, -9302.17, -21326.60, 18104.67, -187500.02, -13764.09, -102960.78, 25496.63, -0.83, -0.41, 0.32
131, -7751.72, -14990.80, -187500.02, -187500.02, -12138.87, -7280.92, 31179.36, 15108.44, -7279.47, -9302.17, -21326.60, 18104.67, -187500.02, -13764.09, -102960.78, 25496.63, 0.00, 0.00, 0.00
132, -7751.72, -14990.80, -187500.02, -187500.02, -12138.87, -7280.92, 31179.36, 15108.44, -7274.13, -9320.10, -21361.23, 18149.77, -187500.02, -13745.83, -102823.68, 25655.73, 0.00, 0.00, 0.00
133, -7740.79, -14995.61, -187500.02, -187500.02, -12194.46, -7403.34, 31047.11, 14921.06, -7274.13, -9320.10, -21361.23, 18149.77, -187500.02, -13745.83, -102823.68, 25655.73, 0.00, 0.00, 0.00
134, -7740.79, -14995.61, -187500.02, -187500.02, -12194.46, -7403.34, 31047.11, 14921.06, -7282.40, -9308.36, -21339.21, 18101.54, -187500.02, -13771.85, -102922.70, 25549.07, 0.00, 0.00, 0.00
135, -7754.51, -14994.78, -187500.02, -187500.02, -12147.82, -7278.71, 31203.44, 15157.97, -7282.40, -9308.36, -21339.21, 18101.54, -187500.02, -13771.85, -102922.70, 25549.07, 0.00, 0.00, 0.00
136, -7754.51, -14994.78, -187500.02, -187500.02, -12147.82, -7278.71, 31203.44, 15157.97, -7278.73, -9323.67, -21356.46, 18173.17, -187500.02, -13733.58, -102740.95, 25767.11, 0.00, 0.00, 0.00
137, -7743.72, -14996.37, -187500.02, -187500.02, -12195.45, -7388.55, 31085.04, 14993.13, -7278.73, -9323.67, -21356.46, 18173.17, -187500.02, -13733.58, -102740.95, 25767.11, 0.00, 0.00, 0.00
138, -7743.72, -14996.37, -187500.02, -187500.02, -12195.45, -7388.55, 31085.04, 14993.13, -7285.33, -9313.12, -21351.32, 18092.53, -187500.02, -13786.62, -102881.48, 25606.29, 0.00, 0.00, 0.00
139, -7759.90, -14988.77, -187500.02, -187500.02, -12140.60, -7264.61, 31236.34, 15210.76, -7285.33, -9313.12, -21351.32, 18092.53, -187500.02, -13786.62, -102881.48, 25606.29, 0.00, 0.00, 0.00
140, -7759.90, -14988.77, -187500.02, -187500.02, -12140.60, -7264.61, 31236.34, 15210.76, -7281.62, -9317.79, -21342.70, 18212.69, -187500.02, -13709.33, -102622.96, 25901.92, -0.83, -0.41, 0.33
141, -7744.10, -14995.20, -187500.02, -187500.02, -12191.80, -7346.86, 31159.58, 15104.19, -7281.62, -9317.79, -21342.70, 18212.69, -187500.02, -13709.33, -102622.96, 25901.92, 0.00, 0.00, 0.00
142, -7744.10, -14995.20, -187500.02, -187500.02, -12191.80, -7346.86, 31159.58, 15104.19, -7285.39, -9316.70, -21363.89, 18100.42, -187500.02, -13788.54, -102793.32, 25701.38, 0.00, 0.00, 0.00
143, -7758.67, -14994.49, -187500.02, -187500.02, -12141.91, -7266.37, 31262.94, 15259.60, -7285.39, -9316.70, -21363.89, 18100.42, -187500.02, -13788.54, -102793.32, 25701.38, 0.00, 0.00, 0.00
144, -7758.67, -14994.49, -187500.02, -187500.02, -12141.91, -7266.37, 31262.94, 15259.60, -7282.04, -9320.48, -21347.19, 18210.23, -187500.02, -13720.73, -102543.30, 25997.31, 0.00, 0.00, 0.00
145, -7748.43, -15005.33, -187500.02, -187500.02, -12180.74, -7347.04, 31189.71, 15170.17, -7282.04, -9320.48, -21347.19, 18210.23, -187500.02, -13720.73, -102543.30, 25997.31, 0.00, 0.00, 0.00
146, -7748.43, -15005.33, -187500.02, -187500.02, -12180.74, -7347.04, 31189.71, 15170.17, -7280.19, -9317.12, -21381.25, 18060.81, -187500.02, -13821.42, -102770.05, 25743.24, 0.00, 0.00, 0.00
147, -7753.93, -14990.00, -187500.02, -187500.02, -12129.98, -7283.70, 31263.67, 15273.04, -7280.19, -9317.12, -21381.25, 18060.81, -187500.02, -13821.42, -102770.05, 25743.24, 0.00, 0.00, 0.00
148, -7753.93, -14990.00, -187500.02, -187500.02, -12129.98, -7283.70, 31263.67, 15273.04, -7277.28, -9315.33, -21334.25, 18210.55, -187500.02, -13709.93, -102484.84, 26078.14, 0.00, 0.00, 0.00
149, -7748.57, -15000.08, -187500.02, -187500.02, -12177.30, -7334.88, 31229.30, 15245.16, -7277.28, -9315.33, -21334.25, 18210.55, -187500.02, -13709.93, -102484.84, 26078.14, 0.00, 0.00, 0.00
150, -7748.57, -15000.08, -187500.02, -187500.02, -12177.30, -7334.88, 31229.30, 15245.16, -7288.50, -9323.38, -21388.79, 18061.86, -187500.02, -13818.92, -102706.51, 25823.28, -0.83, -0.41, 0.32
151, -7769.09, -14992.79, -187500.02, -187500.02, -12141.80, -7277.77, 31285.06, 15318.54, -7288.50, -9323.38, -21388.79, 18061.86, -187500.02, -13818.92, -102706.51, 25823.28, 0.00, 0.00, 0.00
152, -7769.09, -14992.79, -187500.02, -187500.02, -12141.80, -7277.77, 31285.06, 15318.54, -7293.62, -9315.65, -21321.15, 18255.43, -187500.02, -13674.13, -102361.58, 26210.48, 0.00, 0.00, 0.00
153, -7760.10, -15007.52, -187500.02, -187500.02, -12182.19, -7284.77, 31311.22, 15373.73, -7293.62, -9315.65, -21321.15, 18255.43, -187500.02, -13674.13, -102361.58, 26210.48, 0.00, 0.00, 0.00
154, -7760.10, -15007.52, -187500.02, -187500.02, -12182.19, -7284.77, 31311.22, 15373.73, -7279.34, -9317.66, -21411.72, 18061.48, -187500.02, -13832.78, -102614.95, 25926.48, 0.00, 0.00, 0.00
155, -7768.53, -14995.54, -187500.02, -187500.02, -12150.99, -7303.05, 31279.77, 15337.34, -7279.34, -9317.66, -21411.72, 18061.48, -187500.02, -13832.78, -102614.95, 25926.48, 0.00, 0.00, 0.00
156, -7768.53, -14995.54, -187500.02, -187500.02, -12150.99, -7303.05, 31279.77, 15337.34, -7295.90, -9316.68, -21323.70, 18235.40, -187500.02, -13694.78, -102308.87, 26271.79, 0.00, 0.00, 0.00
157, -7761.29, -15006.09, -187500.02, -187500.02, -12180.07, -7275.92, 31350.64, 15450.22, -7295.90, -9316.68, -21323.70, 18235.40, -187500.02, -13694.78, -102308.87, 26271.79, 0.00, 0.00, 0.00
158, -7761.29, -15006.09, -187500.02, -187500.02, -12180.07, -7275.92, 31350.64, 15450.22, -7275.20, -9321.77, -21412.37, 18055.78, -187500.02, -13840.18, -102535.65, 26016.13, 0.00, 0.00, 0.00
159, -7762.29, -14991.11, -187500.02, -187500.02, -12152.35, -7336.74, 31269.44, 15340.61, -7275.20, -9321.77, -21412.37, 18055.78, -187500.02, -13840.18, -102535.65, 26016.13, 0.00, 0.00, 0.00
160, -7762.29, -14991.11, -187500.02, -187500.02, -12152.35, -7336.74, 31269.44, 15340.61, -7296.50, -9312.76, -21306.13, 18227.85, -187500.02, -13684.86, -102244.90, 26334.04, -0.83, -0.40, 0.32
161, -7762.18, -15007.21, -187500.02, -187500.02, -12170.79, -7253.32, 31409.52, 15533.08, -7296.50, -9312.76, -21306.13, 18227.85, -187500.02, -13684.86, -102244.90, 26334.04, 0.00, 0.00, 0.00
162, -7762.18, -15007.21, -187500.02, -187500.02, -12170.79, -7253.32, 31409.52, 15533.08, -7277.21, -9323.92, -21402.33, 18074.58, -187500.02, -13816.66, -102410.10, 26138.17, 0.00, 0.00, 0.00
163, -7755.43, -14993.24, -187500.02, -187500.02, -12161.72, -7328.82, 31319.31, 15393.02, -7277.21, -9323.92, -21402.33, 18074.58, -187500.02, -13816.66, -102410.10, 26138.17, 0.00, 0.00, 0.00
164, -7755.43, -14993.24, -187500.02, -187500.02, -12161.72, -7328.82, 31319.31, 15393.02, -7277.59, -9307.71, -21313.28, 18194.34, -187500.02, -13710.25, -102204.13, 26365.18, 0.00, 0.00, 0.00
165, -7744.07, -14996.21, -187500.02, -187500.02, -12169.12, -7281.44, 31411.08, 15553.62, -7277.59, -9307.71, -21313.28, 18194.34, -187500.02, -13710.25, -102204.13, 26365.18, 0.00, 0.00, 0.00
166, -7744.07, -14996.21, -187500.02, -187500.02, -12169.12, -7281.44, 31411.08, 15553.62, -7262.60, -9319.89, -21403.81, 18027.93, -187500.02, -13844.13, -102380.24, 26169.69, 0.00, 0.00, 0.00
167, -7752.95, -14989.82, -187500.02, -187500.02, -12172.31, -7393.08, 31266.13, 15345.88, -7262.60, -9319.89, -21403.81, 18027.93, -187500.02, -13844.13, -102380.24, 26169.69, 0.00, 0.00, 0.00
168, -7752.95, -14989.82, -187500.02, -187500.02, -12172.31, -7393.08, 31266.13, 15345.88, -7285.31, -9308.54, -21310.35, 18103.66, -187500.02, -13743.17, -102219.22, 26321.10, 0.00, 0.00, 0.00
169, -7754.62, -14995.09, -187500.02, -187500.02, -12150.32, -7288.03, 31427.47, 15562.71, -7285.31, -9308.54, -21310.35, 18103.66, -187500.02, -13743.17, -102219.22, 26321.10, 0.00, 0.00, 0.00
170, -7754.62, -14995.09, -187500.02, -187500.02, -12150.32, -7288.03, 31427.47, 15562.71, -7268.32, -9316.45, -21386.53, 17997.80, -187500.02, -13822.09, -102278.31, 26235.49, -0.83, -0.41, 0.32
171, -7752.68, -14995.67, -187500.02, -187500.02, -12168.47, -7402.18, 31283.90, 15346.17, -7268.32, -9316.45, -21386.53, 17997.80, -187500.02, -13822.09, -102278.31, 26235.49, 0.00, 0.00, 0.00
172, -7752.68, -14995.67, -187500.02, -187500.02, -12168.47, -7402.18, 31283.90, 15346.17, -7288.08, -9304.87, -21320.35, 18060.01, -187500.02, -13748.56, -102198.77, 26316.96, 0.00, 0.00, 0.00
173, -7765.67, -15002.76, -187500.02, -187500.02, -12146.50, -7275.67, 31453.26, 15593.98, -7288.08, -9304.87, -21320.35, 18060.01, -187500.02, -13748.56, -102198.77, 26316.96, 0.00, 0.00, 0.00
174, -7765.67, -15002.76, -187500.02, -187500.02, -12146.50, -7275.67, 31453.26, 15593.98, -7278.89, -9322.78, -21385.21, 18029.52, -187500.02, -13787.65, -102171.07, 26340.64, 0.00, 0.00, 0.00
175, -7755.74, -14999.00, -187500.02, -187500.02, -12178.91, -7395.19, 31305.96, 15377.96, -7278.89, -9322.78, -21385.21, 18029.52, -187500.02, -13787.65, -102171.07, 26340.64, 0.00, 0.00, 0.00
176, -7755.74, -14999.00, -187500.02, -187500.02, -12178.91, -7395.19, 31305.96, 15377.96, -7290.42, -9305.95, -21325.35, 18060.88, -187500.02, -13743.04, -102140.61, 26357.33, 0.00, 0.00, 0.00
177, -7766.56, -14997.93, -187500.02, -187500.02, -12137.35, -7241.23, 31505.68, 15655.36, -7290.42, -9305.95, -21325.35, 18060.88, -187500.02, -13743.04, -102140.61, 26357.33, 0.00, 0.00, 0.00
178, -7766.56, -14997.93, -187500.02, -187500.02, -12137.35, -7241.23, 31505.68, 15655.36, -7278.31, -9314.58, -21369.72, 18089.06, -187500.02, -13739.01, -102009.00, 26488.04, 0.00, 0.00, 0.00
179, -7753.40, -14997.46, -187500.02, -187500.02, -12187.29, -7358.15, 31369.62, 15450.64, -7278.31, -9314.58, -21369.72, 18089.06, -187500.02, -13739.01, -102009.00, 26488.04, 0.00, 0.00, 0.00
180, -7753.40, -14997.46, -187500.02, -187500.02, -12187.29, -7358.15, 31369.62, 15450.64, -7283.23, -9301.70, -21348.29, 18044.29, -187500.02, -13765.61, -102079.34, 26395.76, -0.83, -0.41, 0.32
181, -7755.05, -14986.64, -187500.02, -187500.02, -12139.68, -7253.45, 31509.10, 15661.00, -7283.23, -9301.70, -21348.29, 18044.29, -187500.02, -13765.61, -102079.34, 26395.76, 0.00, 0.00, 0.00
182, -7755.05, -14986.64, -187500.02, -187500.02, -12139.68, -7253.45, 31509.10, 15661.00, -7272.34, -9312.70, -21364.74, 18079.34, -187500.02, -13753.30, -101937.07, 26552.62, 0.00, 0.00, 0.00
183, -7739.74, -14988.79, -187500.02, -187500.02, -12184.38, -7381.53, 31367.50, 15454.29, -7272.34, -9312.70, -21364.74, 18079.34, -187500.02, -13753.30, -101937.07, 26552.62, 0.00, 0.00, 0.00
184, -7739.74, -14988.79, -187500.02, -187500.02, -12184.38, -7381.53, 31367.50, 15454.29, -7275.47, -9291.84, -21349.94, 17996.08, -187500.02, -13791.43, -102070.94, 26387.11, 0.00, 0.00, 0.00
185, -7756.97, -14987.45, -187500.02, -187500.02, -12135.75, -7265.66, 31510.97, 15658.49, -7275.47, -9291.84, -21349.94, 17996.08, -187500.02, -13791.43, -102070.94, 26387.11, 0.00, 0.00, 0.00
186, -7756.97, -14987.45, -187500.02, -187500.02, -12135.75, -7265.66, 31510.97, 15658.49, -7276.59, -9305.61, -21353.16, 18080.82, -187500.02, -13735.19, -101858.04, 26620.79, 0.00, 0.00, 0.00
187, -7744.63, -14997.28, -187500.02, -187500.02, -12191.02, -7382.07, 31382.38, 15486.79, -7276.59, -9305.61, -21353.16, 18080.82, -187500.02, -13735.19, -101858.04, 26620.79, 0.00, 0.00, 0.00
188, -7744.63, -14997.28, -187500.02, -187500.02, -12191.02, -7382.07, 31382.38, 15486.79, -7278.69, -9298.64, -21356.42, 17971.14, -187500.02, -13799.32, -102030.70, 26406.04, 0.00, 0.00, 0.00
189, -7764.77, -14990.29, -187500.02, -187500.02, -12133.02, -7260.99, 31522.48, 15675.68, -7278.69, -9298.64, -21356.42, 17971.14, -187500.02, -13799.32, -102030.70, 26406.04, 0.00, 0.00, 0.00
190, -7764.77, -14990.29, -187500.02, -187500.02, -12133.02, -7260.99, 31522.48, 15675.68, -7283.14, -9308.54, -21334.67, 18112.22, -187500.02, -13703.05, -101741.92, 26718.92, -0.83, -0.41, 0.32
191, -7750.38, -15002.20, -187500.02, -187500.02, -12188.25, -7332.29, 31454.87, 15575.25, -7283.14, -9308.54, -21334.67, 18112.22, -187500.02, -13703.05, -101741.92, 26718.92, 0.00, 0.00, 0.00
192, -7750.38, -15002.20, -187500.02, -187500.02, -12188.25, -7332.29, 31454.87, 15575.25, -7278.40, -9302.68, -21376.00, 17965.21, -187500.02, -13808.37, -101957.19, 26455.35, 0.00, 0.00, 0.00
193, -7767.41, -14995.36, -187500.02, -187500.02, -12145.31, -7279.65, 31509.14, 15656.28, -7278.40, -9302.68, -21376.00, 17965.21, -187500.02, -13808.37, -101957.19, 26455.35, 0.00, 0.00, 0.00
194, -7767.41, -14995.36, -187500.02, -187500.02, -12145.31, -7279.65, 31509.14, 15656.28, -7291.92, -9309.99, -21338.36, 18097.07, -187500.02, -13709.02, -101679.67, 26755.73, 0.00, 0.00, 0.00
195, -7758.96, -15010.18, -187500.02, -187500.02, -12188.94, -7328.18, 31471.05, 15597.40, -7291.92, -9309.99, -21338.36, 18097.07, -187500.02, -13709.02, -101679.67, 26755.73, 0.00, 0.00, 0.00
196, -7758.96, -15010.18, -187500.02, -187500.02, -12188.94, -7328.18, 31471.05, 15597.40, -7284.63, -9313.48, -21392.68, 17925.21, -187500.02, -13831.86, -101920.35, 26456.15, 0.00, 0.00, 0.00
197, -7769.89, -14995.41, -187500.02, -187500.02, -12144.80, -7290.29, 31503.20, 15630.53, -7284.63, -9313.48, -21392.68, 17925.21, -187500.02, -13831.86, -101920.35, 26456.15, 0.00, 0.00, 0.00
198, -7769.89, -14995.41, -187500.02, -187500.02, -12144.80, -7290.29, 31503.20, 15630.53, -7290.16, -9310.64, -21329.84, 18076.99, -187500.02, -13712.55, -101622.98, 26774.08, 0.00, 0.00, 0.00
199, -7758.07, -15005.91, -187500.02, -187500.02, -12191.98, -7328.11, 31483.57, 15612.20, -7290.16, -9310.64, -21329.84, 18076.99, -187500.02, -13712.55, -101622.98, 26774.08, 0.00, 0.00, 0.00
200, -7758.07, -15005.91, -187500.02, -187500.02, -12191.98, -7328.11, 31483.57, 15612.20, -7270.78, -9309.86, -21407.92, 17864.65, -187500.02, -13869.01, -101907.05, 26434.49, -0.83, -0.42, 0.32
201, -7752.75, -14983.31, -187500.02, -187500.02, -12148.60, -7372.05, 31419.06, 15530.59, -7270.78, -9309.86, -21407.92, 17864.65, -187500.02, -13869.01, -101907.05, 26434.49, 0.00, 0.00, 0.00
202, -7752.75, -14983.31, -187500.02, -187500.02, -12148.60, -7372.05, 31419.06, 15530.59, -7284.21, -9298.19, -21314.42, 18022.84, -187500.02, -13724.84, -101625.24, 26737.56, 0.00, 0.00, 0.00
203, -7746.20, -15001.82, -187500.02, -187500.02, -12185.23, -7370.29, 31453.31, 15584.64, -7284.21, -9298.19, -21314.42, 18022.84, -187500.02, -13724.84, -101625.24, 26737.56, 0.00, 0.00, 0.00
204, -7746.20, -15001.82, -187500.02, -187500.02, -12185.23, -7370.29, 31453.31, 15584.64, -7260.11, -9303.09, -21417.87, 17808.28, -187500.02, -13886.51, -101907.99, 26404.54, 0.00, 0.00, 0.00
205, -7746.80, -14985.17, -187500.02, -187500.02, -12152.64, -7450.73, 31345.68, 15444.63, -7260.11, -9303.09, -21417.87, 17808.28, -187500.02, -13886.51, -101907.99, 26404.54, 0.00, 0.00, 0.00
206, -7746.80, -14985.17, -187500.02, -187500.02, -12152.64, -7450.73, 31345.68, 15444.63, -7289.19, -9297.97, -21312.99, 17977.82, -187500.02, -13725.40, -101633.40, 26694.58, 0.00, 0.00, 0.00
207, -7751.58, -15004.84, -187500.02, -187500.02, -12178.57, -7388.77, 31446.24, 15580.44, -7289.19, -9297.97, -21312.99, 17977.82, -187500.02, -13725.40, -101633.40, 26694.58, 0.00, 0.00, 0.00
208, -7751.58, -15004.84, -187500.02, -187500.02, -12178.57, -7388.77, 31446.24, 15580.44, -7275.85, -9315.20, -21410.60, 17821.54, -187500.02, -13851.87, -101831.26, 26447.90, 0.00, 0.00, 0.00
209, -7750.47, -14990.11, -187500.02, -187500.02, -12161.99, -7456.09, 31348.95, 15432.16, -7275.85, -9315.20, -21410.60, 17821.54, -187500.02, -13851.87, -101831.26, 26447.90, 0.00, 0.00, 0.00
210, -7750.47, -14990.11, -187500.02, -187500.02, -12161.99, -7456.09, 31348.95, 15432.16, -7291.21, -9294.68, -21317.15, 17965.28, -187500.02, -13723.39, -101606.13, 26681.14, -0.83, -0.41, 0.32
211, -7750.69, -15002.45, -187500.02, -187500.02, -12172.56, -7392.86, 31448.10, 15580.98, -7291.21, -9294.68, -21317.15, 17965.28, -187500.02, -13723.39, -101606.13, 26681.14, 0.00, 0.00, 0.00
212, -7750.69, -15002.45, -187500.02, -187500.02, -12172.56, -7392.86, 31448.10, 15580.98, -7272.43, -9310.84, -21428.62, 17786.65, -187500.02, -13873.95, -101823.68, 26423.40, 0.00, 0.00, 0.00
213, -7752.21, -14993.13, -187500.02, -187500.02, -12167.89, -7503.97, 31282.40, 15348.88, -7272.43, -9310.84, -21428.62, 17786.65, -187500.02, -13873.95, -101823.68, 26423.40, 0.00, 0.00, 0.00
214, -7752.21, -14993.13, -187500.02, -187500.02, -12167.89, -7503.97, 31282.40, 15348.88, -7297.06, -9298.64, -21328.06, 17903.26, -187500.02, -13754.84, -101662.39, 26578.35, 0.00, 0.00, 0.00
215, -7754.29, -15005.13, -187500.02, -187500.02, -12158.57, -7381.86, 31432.18, 15553.44, -7297.06, -9298.64, -21328.06, 17903.26, -187500.02, -13754.84, -101662.39, 26578.35, 0.00, 0.00, 0.00
216, -7754.29, -15005.13, -187500.02, -187500.02, -12158.57, -7381.86, 31432.18, 15553.44, -7282.29, -9313.82, -21407.76, 17806.47, -187500.02, -13835.62, -101755.33, 26449.09, 0.00, 0.00, 0.00
217, -7749.35, -14994.29, -187500.02, -187500.02, -12169.21, -7464.63, 31301.67, 15340.34, -7282.29, -9313.82, -21407.76, 17806.47, -187500.02, -13835.62, -101755.33, 26449.09, 0.00, 0.00, 0.00
218, -7749.35, -14994.29, -187500.02, -187500.02, -12169.21, -7464.63, 31301.67, 15340.34, -7296.66, -9297.77, -21332.39, 17888.79, -187500.02, -13752.63, -101652.34, 26543.12, 0.00, 0.00, 0.00
219, -7759.68, -15002.92, -187500.02, -187500.02, -12152.42, -7327.68, 31468.80, 15568.84, -7296.66, -9297.77, -21332.39, 17888.79, -187500.02, -13752.63, -101652.34, 26543.12, 0.00, 0.00, 0.00
220, -7759.68, -15002.92, -187500.02, -187500.02, -12152.42, -7327.68, 31468.80, 15568.84, -7280.05, -9308.05, -21407.92, 17826.68, -187500.02, -13820.71, -101688.14, 26486.82, -0.83, -0.41, 0.32
221, -7743.85, -14994.58, -187500.02, -187500.02, -12176.34, -7459.89, 31288.31, 15306.85, -7280.05, -9308.05, -21407.92, 17826.68, -187500.02, -13820.71, -101688.14, 26486.82, 0.00, 0.00, 0.00
222, -7743.85, -14994.58, -187500.02, -187500.02, -12176.34, -7459.89, 31288.31, 15306.85, -7292.77, -9295.11, -21339.88, 17849.86, -187500.02, -13778.22, -101680.09, 26477.34, 0.00, 0.00, 0.00
223, -7755.92, -14999.76, -187500.02, -187500.02, -12150.65, -7323.01, 31453.98, 15542.84, -7292.77, -9295.11, -21339.88, 17849.86, -187500.02, -13778.22, -101680.09, 26477.34, 0.00, 0.00, 0.00
224, -7755.92, -14999.76, -187500.02, -187500.02, -12150.65, -7323.01, 31453.98, 15542.84, -7274.80, -9309.39, -21390.73, 17838.61, -187500.02, -13801.84, -101635.57, 26515.00, 0.00, 0.00, 0.00
225, -7737.23, -14989.57, -187500.02, -187500.02, -12184.94, -7450.40, 31288.33, 15296.04, -7274.80, -9309.39, -21390.73, 17838.61, -187500.02, -13801.84, -101635.57, 26515.00, 0.00, 0.00, 0.00
226, -7737.23, -14989.57, -187500.02, -187500.02, -12184.94, -7450.40, 31288.33, 15296.04, -7286.58, -9287.82, -21349.11, 17810.07, -187500.02, -13799.94, -101709.13, 26417.79, 0.00, 0.00, 0.00
227, -7749.89, -14991.05, -187500.02, -187500.02, -12148.13, -7327.66, 31433.23, 15507.24, -7286.58, -9287.82, -21349.11, 17810.07, -187500.02, -13799.94, -101709.13, 26417.79, 0.00, 0.00, 0.00
228, -7749.89, -14991.05, -187500.02, -187500.02, -12148.13, -7327.66, 31433.23, 15507.24, -7275.94, -9301.70, -21387.24, 17820.69, -187500.02, -13798.80, -101626.77, 26507.94, 0.00, 0.00, 0.00
229, -7737.06, -14996.32, -187500.02, -187500.02, -12187.47, -7467.52, 31254.35, 15259.36, -7275.94, -9301.70, -21387.24, 17820.69, -187500.02, -13798.80, -101626.77, 26507.94, 0.00, 0.00, 0.00
230, -7737.06, -14996.32, -187500.02, -187500.02, -12187.47, -7467.52, 31254.35, 15259.36, -7280.75, -9294.01, -21360.82, 17751.87, -187500.02, -13828.78, -101769.95, 26338.29, -0.83, -0.41, 0.32
231, -7752.21, -14991.20, -187500.02, -187500.02, -12142.12, -7342.44, 31392.49, 15460.21, -7280.75, -9294.01, -21360.82, 17751.87, -187500.02, -13828.78, -101769.95, 26338.29, 0.00, 0.00, 0.00
232, -7752.21, -14991.20, -187500.02, -187500.02, -12142.12, -7342.44, 31392.49, 15460.21, -7278.47, -9305.79, -21362.95, 17842.03, -187500.02, -13765.19, -101582.93, 26540.71, 0.00, 0.00, 0.00
233, -7737.75, -14997.28, -187500.02, -187500.02, -12192.81, -7443.76, 31263.00, 15274.62, -7278.47, -9305.79, -21362.95, 17842.03, -187500.02, -13765.19, -101582.93, 26540.71, 0.00, 0.00, 0.00
234, -7737.75, -14997.28, -187500.02, -187500.02, -12192.81, -7443.76, 31263.00, 15274.62, -7278.13, -9293.86, -21371.24, 17725.04, -187500.02, -13841.18, -101789.17, 26298.99, 0.00, 0.00, 0.00
235, -7754.54, -14989.55, -187500.02, -187500.02, -12140.66, -7331.84, 31378.03, 15439.06, -7278.13, -9293.86, -21371.24, 17725.04, -187500.02, -13841.18, -101789.17, 26298.99, 0.00, 0.00, 0.00
236, -7754.54, -14989.55, -187500.02, -187500.02, -12140.66, -7331.84, 31378.03, 15439.06, -7284.14, -9305.75, -21344.48, 17864.81, -187500.02, -13740.40, -101530.47, 26576.18, 0.00, 0.00, 0.00
237, -7744.23, -15004.81, -187500.02, -187500.02, -12192.65, -7384.55, 31316.42, 15337.97, -7284.14, -9305.75, -21344.48, 17864.81, -187500.02, -13740.40, -101530.47, 26576.18, 0.00, 0.00, 0.00
238, -7744.23, -15004.81, -187500.02, -187500.02, -12192.65, -7384.55, 31316.42, 15337.97, -7275.56, -9302.53, -21382.93, 17728.11, -187500.02, -13844.47, -101754.34, 26306.64, 0.00, 0.00, 0.00
239, -7754.65, -14990.84, -187500.02, -187500.02, -12141.22, -7323.71, 31371.34, 15430.06, -7275.56, -9302.53, -21382.93, 17728.11, -187500.02, -13844.47, -101754.34, 26306.64, 0.00, 0.00, 0.00
240, -7754.65, -14990.84, -187500.02, -187500.02, -12141.22, -7323.71, 31371.34, 15430.06, -7287.32, -9303.04, -21350.70, 17860.61, -187500.02, -13747.26, -101502.98, 26583.51, -0.83, -0.41, 0.32
241, -7751.32, -15009.75, -187500.02, -187500.02, -12186.84, -7365.77, 31328.56, 15364.39, -7287.32, -9303.04, -21350.70, 17860.61, -187500.02, -13747.26, -101502.98, 26583.51, 0.00, 0.00, 0.00
242, -7751.32, -15009.75, -187500.02, -187500.02, -12186.84, -7365.77, 31328.56, 15364.39, -7289.46, -9304.79, -21390.51, 17731.35, -187500.02, -13838.68, -101723.81, 26312.07, 0.00, 0.00, 0.00
243, -7770.27, -15002.89, -187500.02, -187500.02, -12136.57, -7286.96, 31408.27, 15462.22, -7289.46, -9304.79, -21390.51, 17731.35, -187500.02, -13838.68, -101723.81, 26312.07, 0.00, 0.00, 0.00
244, -7770.27, -15002.89, -187500.02, -187500.02, -12136.57, -7286.96, 31408.27, 15462.22, -7295.36, -9309.57, -21346.47, 17894.25, -187500.02, -13723.39, -101434.91, 26629.80, 0.00, 0.00, 0.00
245, -7756.95, -15013.53, -187500.02, -187500.02, -12183.15, -7351.53, 31356.32, 15406.95, -7295.36, -9309.57, -21346.47, 17894.25, -187500.02, -13723.39, -101434.91, 26629.80, 0.00, 0.00, 0.00
246, -7756.95, -15013.53, -187500.02, -187500.02, -12183.15, -7351.53, 31356.32, 15406.95, -7286.40, -9310.22, -21417.89, 17695.58, -187500.02, -13874.71, -101741.47, 26275.53, 0.00, 0.00, 0.00
247, -7770.43, -15003.79, -187500.02, -187500.02, -12138.18, -7331.04, 31361.69, 15405.92, -7286.40, -9310.22, -21417.89, 17695.58, -187500.02, -13874.71, -101741.47, 26275.53, 0.00, 0.00, 0.00
248, -7770.43, -15003.79, -187500.02, -187500.02, -12138.18, -7331.04, 31361.69, 15405.92, -7301.09, -9311.92, -21334.94, 17889.82, -187500.02, -13728.11, -101434.76, 26607.98, 0.00, 0.00, 0.00
249, -7749.48, -15011.34, -187500.02, -187500.02, -12174.10, -7326.23, 31397.20, 15452.72, -7301.09, -9311.92, -21334.94, 17889.82, -187500.02, -13728.11, -101434.76, 26607.98, 0.00, 0.00, 0.00
250, -7749.48, -15011.34, -187500.02, -187500.02, -12174.10, -7326.23, 31397.20, 15452.72, -7271.69, -9309.61, -21417.62, 17699.16, -187500.02, -13877.82, -101717.69, 26280.00, -0.84, -0.41, 0.32
251, -7758.65, -14995.34, -187500.02, -187500.02, -12143.46, -7349.90, 31353.84, 15384.12, -7271.69, -9309.61, -21417.62, 17699.16, -187500.02, -13877.82, -101717.69, 26280.00, 0.00, 0.00, 0.00
252, -7758.65, -14995.34, -187500.02, -187500.02, -12143.46, -7349.90, 31353.84, 15384.12, -7295.18, -9303.67, -21323.09, 17887.07, -187500.02, -13721.06, -101423.36, 26592.23, 0.00, 0.00, 0.00
253, -7753.86, -15008.10, -187500.02, -187500.02, -12177.19, -7328.71, 31403.28, 15468.73, -7295.18, -9303.67, -21323.09, 17887.07, -187500.02, -13721.06, -101423.36, 26592.23, 0.00, 0.00, 0.00
254, -7753.86, -15008.10, -187500.02, -187500.02, -12177.19, -7328.71, 31403.28, 15468.73, -7278.96, -9310.86, -21425.80, 17687.87, -187500.02, -13883.05, -101702.04, 26272.78, 0.00, 0.00, 0.00
255, -7758.02, -14998.42, -187500.02, -187500.02, -12158.30, -7406.74, 31285.89, 15306.79, -7278.96, -9310.86, -21425.80, 17687.87, -187500.02, -13883.05, -101702.04, 26272.78, 0.00, 0.00, 0.00
0, -7758.02, -14998.42, -187500.02, -187500.02, -12158.30, -7406.74, 31285.89, 15306.79, -7303.05, -9302.04, -21329.71, 17837.34, -187500.02, -13747.66, -101487.09, 26507.67, 0.00, 0.00, 0.00
1, -7774.76, -15020.08, -187500.02, -187500.02, -12170.26, -7332.94, 31392.11, 15455.29, -7303.05, -9302.04, -21329.71, 17837.34, -187500.02, -13747.66, -101487.09, 26507.67, 0.00, 0.00, 0.00
2, -7774.76, -15020.08, -187500.02, -187500.02, -12170.26, -7332.94, 31392.11, 15455.29, -7296.50, -9320.07, -21428.21, 17691.25, -187500.02, -13875.16, -101686.11, 26274.70, 0.00, 0.00, 0.00
3, -7788.46, -15019.14, -187500.02, -187500.02, -12165.96, -7418.70, 31264.97, 15267.54, -7296.50, -9320.07, -21428.21, 17691.25, -187500.02, -13875.16, -101686.11, 26274.70, 0.00, 0.00, 0.00
4, -7788.46, -15019.14, -187500.02, -187500.02, -12165.96, -7418.70, 31264.97, 15267.54, -7332.91, -9313.44, -21340.01, 17828.04, -187500.02, -13751.51, -101500.34, 26474.28, -0.84, -0.41, 0.32
5, -7810.41, -15045.16, -187500.02, -187500.02, -12167.02, -7315.52, 31405.59, 15463.38, -7332.91, -9313.44, -21340.01, 17828.04, -187500.02, -13751.51, -101500.34, 26474.28, 0.00, 0.00, 0.00
6, -7810.41, -15045.16, -187500.02, -187500.02, -12167.02, -7315.52, 31405.59, 15463.38, -7326.30, -9328.84, -21443.66, 17710.31, -187500.02, -13858.37, -101644.15, 26309.32, 0.00, 0.00, 0.00
7, -7824.25, -15051.19, -187500.02, -187500.02, -12168.22, -7419.30, 31264.32, 15249.19, -7326.30, -9328.84, -21443.66, 17710.31, -187500.02, -13858.37, -101644.15, 26309.32, 0.00, 0.00, 0.00
8, -7824.25, -15051.19, -187500.02, -187500.02, -12168.22, -7419.30, 31264.32, 15249.19, -7354.37, -9317.88, -21378.08, 17785.44, -187500.02, -13784.79, -101552.15, 26408.34, 0.00, 0.00, 0.00
9, -7847.16, -15072.12, -187500.02, -187500.02, -12153.38, -7346.86, 31373.91, 15423.75, -7354.37, -9317.88, -21378.08, 17785.44, -187500.02, -13784.79, -101552.15, 26408.34, 0.00, 0.00, 0.00
10, -7847.16, -15072.12, -187500.02, -187500.02, -12153.38, -7346.86, 31373.91, 15423.75, -7361.12, -9337.42, -21462.28, 17687.18, -187500.02, -13869.44, -101651.88, 26296.33, 0.00, 0.00, 0.00
11, -7866.36, -15087.32, -187500.02, -187500.02, -12167.40, -7473.02, 31207.39, 15177.62, -7361.12, -9337.42, -21462.28, 17687.18, -187500.02, -13869.44, -101651.88, 26296.33, 0.00, 0.00, 0.00
12, -7866.36, -15087.32, -187500.02, -187500.02, -12167.40, -7473.02, 31207.39, 15177.62, -7398.43, -9334.78, -21394.87, 17744.02, -187500.02, -13798.31, -101599.29, 26340.05, 0.00, 0.00, 0.00
13, -7895.62, -15108.86, -187500.02, -187500.02, -12152.51, -7364.14, 31351.94, 15393.60, -7398.43, -9334.78, -21394.87, 17744.02, -187500.02, -13798.31, -101599.29, 26340.05, 0.00, 0.00, 0.00
14, -7895.62, -15108.86, -187500.02, -187500.02, -12152.51, -7364.14, 31351.94, 15393.60, -7401.36, -9352.77, -21473.97, 17690.87, -187500.02, -13854.64, -101623.59, 26313.08, -0.84, -0.41, 0.32
15, -7904.29, -15124.26, -187500.02, -187500.02, -12179.60, -7495.39, 31185.06, 15145.30, -7401.36, -9352.77, -21473.97, 17690.87, -187500.02, -13854.64, -101623.59, 26313.08, 0.00, 0.00, 0.00
16, -7904.29, -15124.26, -187500.02, -187500.02, -12179.60, -7495.39, 31185.06, 15145.30, -7417.76, -9340.73, -21417.33, 17707.05, -187500.02, -13816.37, -101641.34, 26281.29, 0.00, 0.00, 0.00
17, -7924.03, -15133.02, -187500.02, -187500.02, -12138.20, -7354.15, 31357.82, 15387.01, -7417.76, -9340.73, -21417.33, 17707.05, -187500.02, -13816.37, -101641.34, 26281.29, 0.00, 0.00, 0.00
18, -7924.03, -15133.02, -187500.02, -187500.02, -12138.20, -7354.15, 31357.82, 15387.01, -7415.28, -9356.24, -21467.96, 17714.49, -187500.02, -13825.07, -101572.34, 26354.11, 0.00, 0.00, 0.00
19, -7925.03, -15138.88, -187500.02, -187500.02, -12184.52, -7474.09, 31206.61, 15156.38, -7415.28, -9356.24, -21467.96, 17714.49, -187500.02, -13825.07, -101572.34, 26354.11, 0.00, 0.00, 0.00
20, -7925.03, -15138.88, -187500.02, -187500.02, -12184.52, -7474.09, 31206.61, 15156.38, -7427.26, -9343.79, -21438.38, 17686.71, -187500.02, -13830.54, -101657.83, 26234.20, 0.00, 0.00, 0.00
21, -7940.99, -15145.45, -187500.02, -187500.02, -12144.31, -7344.76, 31359.25, 15367.83, -7427.26, -9343.79, -21438.38, 17686.71, -187500.02, -13830.54, -101657.83, 26234.20, 0.00, 0.00, 0.00
22, -7940.99, -15145.45, -187500.02, -187500.02, -12144.31, -7344.76, 31359.25, 15367.83, -7422.21, -9364.78, -21472.83, 17719.88, -187500.02, -13822.74, -101541.94, 26362.74, 0.00, 0.00, 0.00
23, -7930.94, -15153.95, -187500.02, -187500.02, -12197.03, -7485.33, 31186.63, 15128.69, -7422.21, -9364.78, -21472.83, 17719.88, -187500.02, -13822.74, -101541.94, 26362.74, 0.00, 0.00, 0.00
24, -7930.94, -15153.95, -187500.02, -187500.02, -12197.03, -7485.33, 31186.63, 15128.69, -7428.74, -9352.77, -21463.87, 17629.80, -187500.02, -13871.20, -101715.77, 26153.46, -0.84, -0.42, 0.32
25, -7935.34, -15135.97, -187500.02, -187500.02, -12139.77, -7364.23, 31319.15, 15312.51, -7428.74, -9352.77, -21463.87, 17629.80, -187500.02, -13871.20, -101715.77, 26153.46, 0.00, 0.00, 0.00
26, -7935.34, -15135.97, -187500.02, -187500.02, -12139.77, -7364.23, 31319.15, 15312.51, -7416.67, -9352.19, -21451.59, 17727.75, -187500.02, -13802.85, -101521.46, 26370.10, 0.00, 0.00, 0.00
27, -7907.38, -15135.53, -187500.02, -187500.02, -12191.29, -7466.96, 31195.81, 15137.65, -7416.67, -9352.19, -21451.59, 17727.75, -187500.02, -13802.85, -101521.46, 26370.10, 0.00, 0.00, 0.00
28, -7907.38, -15135.53, -187500.02, -187500.02, -12191.29, -7466.96, 31195.81, 15137.65, -7412.15, -9340.91, -21460.38, 17603.70, -187500.02, -13883.05, -101748.58, 26105.67, 0.00, 0.00, 0.00
29, -7920.05, -15122.34, -187500.02, -187500.02, -12138.94, -7369.08, 31295.77, 15274.80, -7412.15, -9340.91, -21460.38, 17603.70, -187500.02, -13883.05, -101748.58, 26105.67, 0.00, 0.00, 0.00
30, -7920.05, -15122.34, -187500.02, -187500.02, -12138.94, -7369.08, 31295.77, 15274.80, -7406.59, -9346.23, -21431.92, 17735.57, -187500.02, -13787.54, -101507.85, 26375.59, 0.00, 0.00, 0.00
31, -7889.38, -15117.22, -187500.02, -187500.02, -12186.10, -7445.32, 31209.74, 15152.60, -7406.59, -9346.23, -21431.92, 17735.57, -187500.02, -13787.54, -101507.85, 26375.59, 0.00, 0.00, 0.00
32, -7889.38, -15117.22, -187500.02, -187500.02, -12186.10, -7445.32, 31209.74, 15152.60, -7389.87, -9332.28, -21463.11, 17576.52, -187500.02, -13894.60, -101782.55, 26058.13, 0.00, 0.00, 0.00
33, -7896.83, -15099.05, -187500.02, -187500.02, -12136.33, -7375.99, 31266.27, 15228.89, -7389.87, -9332.28, -21463.11, 17576.52, -187500.02, -13894.60, -101782.55, 26058.13, 0.00, 0.00, 0.00
34, -7896.83, -15099.05, -187500.02, -187500.02, -12136.33, -7375.99, 31266.27, 15228.89, -7392.79, -9337.87, -21408.52, 17737.27, -187500.02, -13770.33, -101512.57, 26357.67, -0.83, -0.41, 0.32
35, -7871.26, -15100.03, -187500.02, -187500.02, -12183.64, -7423.66, 31218.26, 15161.03, -7392.79, -9337.87, -21408.52, 17737.27, -187500.02, -13770.33, -101512.57, 26357.67, 0.00, 0.00, 0.00
36, -7871.26, -15100.03, -187500.02, -187500.02, -12183.64, -7423.66, 31218.26, 15161.03, -7375.85, -9336.41, -21454.39, 17573.43, -187500.02, -13893.20, -101794.06, 26030.62, 0.00, 0.00, 0.00
37, -7879.50, -15085.21, -187500.02, -187500.02, -12136.48, -7376.03, 31251.56, 15194.47, -7375.85, -9336.41, -21454.39, 17573.43, -187500.02, -13893.20, -101794.06, 26030.62, 0.00, 0.00, 0.00
38, -7879.50, -15085.21, -187500.02, -187500.02, -12136.48, -7376.03, 31251.56, 15194.47, -7380.28, -9334.13, -21379.60, 17760.20, -187500.02, -13752.04, -101501.66, 26355.30, 0.00, 0.00, 0.00
39, -7868.82, -15098.38, -187500.02, -187500.02, -12175.82, -7369.62, 31278.27, 15223.01, -7380.28, -9334.13, -21379.60, 17760.20, -187500.02, -13752.04, -101501.66, 26355.30, 0.00, 0.00, 0.00
40, -7868.82, -15098.38, -187500.02, -187500.02, -12175.82, -7369.62, 31278.27, 15223.01, -7360.47, -9334.00, -21456.91, 17597.88, -187500.02, -13887.74, -101762.30, 26053.73, 0.00, 0.00, 0.00
41, -7865.76, -15076.65, -187500.02, -187500.02, -12141.31, -7387.70, 31241.72, 15172.01, -7360.47, -9334.00, -21456.91, 17597.88, -187500.02, -13887.74, -101762.30, 26053.73, 0.00, 0.00, 0.00
42, -7865.76, -15076.65, -187500.02, -187500.02, -12141.31, -7387.70, 31241.72, 15172.01, -7371.47, -9327.90, -21370.50, 17770.02, -187500.02, -13747.46, -101487.60, 26358.23, 0.00, 0.00, 0.00
43, -7853.37, -15081.08, -187500.02, -187500.02, -12172.69, -7362.40, 31301.70, 15257.59, -7371.47, -9327.90, -21370.50, 17770.02, -187500.02, -13747.46, -101487.60, 26358.23, 0.00, 0.00, 0.00
44, -7853.37, -15081.08, -187500.02, -187500.02, -12172.69, -7362.40, 31301.70, 15257.59, -7344.07, -9325.66, -21450.01, 17607.16, -187500.02, -13880.25, -101731.80, 26071.28, -0.83, -0.41, 0.33
45, -7847.41, -15065.14, -187500.02, -187500.02, -12150.68, -7399.68, 31243.18, 15163.02, -7344.07, -9325.66, -21450.01, 17607.16, -187500.02, -13880.25, -101731.80, 26071.28, 0.00, 0.00, 0.00
46, -7847.41, -15065.14, -187500.02, -187500.02, -12150.68, -7399.68, 31243.18, 15163.02, -7357.17, -9313.97, -21357.25, 17775.02, -187500.02, -13740.91, -101476.96, 26352.62, 0.00, 0.00, 0.00
47, -7828.70, -15062.33, -187500.02, -187500.02, -12165.16, -7370.20, 31311.48, 15271.29, -7357.17, -9313.97, -21357.25, 17775.02, -187500.02, -13740.91, -101476.96, 26352.62, 0.00, 0.00, 0.00
48, -7828.70, -15062.33, -187500.02, -187500.02, -12165.16, -7370.20, 31311.48, 15271.29, -7328.62, -9319.05, -21456.33, 17573.75, -187500.02, -13904.08, -101753.66, 26046.62, 0.00, 0.00, 0.00
49, -7835.16, -15047.84, -187500.02, -187500.02, -12148.51, -7459.67, 31190.63, 15095.61, -7328.62, -9319.05, -21456.33, 17573.75, -187500.02, -13904.08, -101753.66, 26046.62, 0.00, 0.00, 0.00
50, -7835.16, -15047.84, -187500.02, -187500.02, -12148.51, -7459.67, 31190.63, 15095.61, -7353.23, -9314.04, -21359.91, 17724.69, -187500.02, -13764.29, -101548.06, 26271.52, 0.00, 0.00, 0.00
51, -7829.91, -15059.26, -187500.02, -187500.02, -12163.13, -7400.26, 31282.72, 15244.47, -7353.23, -9314.04, -21359.91, 17724.69, -187500.02, -13764.29, -101548.06, 26271.52, 0.00, 0.00, 0.00
52, -7829.91, -15059.26, -187500.02, -187500.02, -12163.13, -7400.26, 31282.72, 15244.47, -7335.35, -9324.34, -21454.92, 17583.60, -187500.02, -13881.62, -101742.27, 26055.32, 0.00, 0.00, 0.00
53, -7832.03, -15048.67, -187500.02, -187500.02, -12157.38, -7487.81, 31152.90, 15049.61, -7335.35, -9324.34, -21454.92, 17583.60, -187500.02, -13881.62, -101742.27, 26055.32, 0.00, 0.00, 0.00
54, -7832.03, -15048.67, -187500.02, -187500.02, -12157.38, -7487.81, 31152.90, 15049.61, -7353.03, -9310.93, -21357.81, 17717.65, -187500.02, -13756.54, -101576.96, 26229.68, -0.83, -0.42, 0.33
55, -7837.73, -15060.22, -187500.02, -187500.02, -12149.51, -7357.28, 31328.07, 15289.71, -7353.03, -9310.93, -21357.81, 17717.65, -187500.02, -13756.54, -101576.96, 26229.68, 0.00, 0.00, 0.00
56, -7837.73, -15060.22, -187500.02, -187500.02, -12149.51, -7357.28, 31328.07, 15289.71, -7333.45, -9326.69, -21448.73, 17636.35, -187500.02, -13845.79, -101669.61, 26123.51, 0.00, 0.00, 0.00
57, -7826.84, -15045.74, -187500.02, -187500.02, -12165.21, -7490.70, 31150.84, 15045.05, -7333.45, -9326.69, -21448.73, 17636.35, -187500.02, -13845.79, -101669.61, 26123.51, 0.00, 0.00, 0.00
58, -7826.84, -15045.74, -187500.02, -187500.02, -12165.21, -7490.70, 31150.84, 15045.05, -7352.14, -9314.02, -21371.29, 17697.11, -187500.02, -13779.92, -101612.59, 26186.10, 0.00, 0.00, 0.00
59, -7837.37, -15047.44, -187500.02, -187500.02, -12141.27, -7342.39, 31339.54, 15305.13, -7352.14, -9314.02, -21371.29, 17697.11, -187500.02, -13779.92, -101612.59, 26186.10, 0.00, 0.00, 0.00
60, -7837.37, -15047.44, -187500.02, -187500.02, -12141.27, -7342.39, 31339.54, 15305.13, -7325.58, -9326.91, -21433.51, 17668.67, -187500.02, -13821.51, -101615.70, 26177.40, 0.00, 0.00, 0.00
61, -7816.74, -15038.19, -187500.02, -187500.02, -12171.78, -7466.78, 31175.25, 15067.69, -7325.58, -9326.91, -21433.51, 17668.67, -187500.02, -13821.51, -101615.70, 26177.40, 0.00, 0.00, 0.00
62, -7816.74, -15038.19, -187500.02, -187500.02, -12171.78, -7466.78, 31175.25, 15067.69, -7342.75, -9309.97, -21363.60, 17709.20, -187500.02, -13775.71, -101601.15, 26184.11, 0.00, 0.00, 0.00
63, -7817.23, -15034.97, -187500.02, -187500.02, -12136.42, -7322.05, 31355.14, 15322.59, -7342.75, -9309.97, -21363.60, 17709.20, -187500.02, -13775.71, -101601.15, 26184.11, 0.00, 0.00, 0.00
64, -7817.23, -15034.97, -187500.02, -187500.02, -12136.42, -7322.05, 31355.14, 15322.59, -7316.96, -9314.44, -21425.96, 17677.88, -187500.02, -13821.22, -101591.38, 26202.64, -0.83, -0.41, 0.33
65, -7804.22, -15028.06, -187500.02, -187500.02, -12179.15, -7472.52, 31164.57, 15053.99, -7316.96, -9314.44, -21425.96, 17677.88, -187500.02, -13821.22, -101591.38, 26202.64, 0.00, 0.00, 0.00
66, -7804.22, -15028.06, -187500.02, -187500.02, -12179.15, -7472.52, 31164.57, 15053.99, -7328.02, -9303.29, -21374.23, 17660.18, -187500.02, -13809.89, -101665.32, 26110.44, 0.00, 0.00, 0.00
67, -7815.85, -15030.14, -187500.02, -187500.02, -12134.69, -7324.49, 31343.54, 15298.83, -7328.02, -9303.29, -21374.23, 17660.18, -187500.02, -13809.89, -101665.32, 26110.44, 0.00, 0.00, 0.00
68, -7815.85, -15030.14, -187500.02, -187500.02, -12134.69, -7324.49, 31343.54, 15298.83, -7318.63, -9320.32, -21403.67, 17716.86, -187500.02, -13786.98, -101539.01, 26251.72, 0.00, 0.00, 0.00
69, -7803.17, -15034.74, -187500.02, -187500.02, -12184.02, -7450.51, 31192.55, 15083.54, -7318.63, -9320.32, -21403.67, 17716.86, -187500.02, -13786.98, -101539.01, 26251.72, 0.00, 0.00, 0.00
70, -7803.17, -15034.74, -187500.02, -187500.02, -12184.02, -7450.51, 31192.55, 15083.54, -7327.73, -9307.20, -21385.84, 17657.07, -187500.02, -13823.21, -101678.22, 26089.71, 0.00, 0.00, 0.00
71, -7814.93, -15025.62, -187500.02, -187500.02, -12131.10, -7321.49, 31341.28, 15299.50, -7327.73, -9307.20, -21385.84, 17657.07, -187500.02, -13823.21, -101678.22, 26089.71, 0.00, 0.00, 0.00
72, -7814.93, -15025.62, -187500.02, -187500.02, -12131.10, -7321.49, 31341.28, 15299.50, -7313.94, -9321.55, -21399.92, 17731.08, -187500.02, -13782.69, -101514.16, 26278.32, 0.00, 0.00, 0.00
73, -7801.90, -15030.47, -187500.02, -187500.02, -12181.25, -7444.11, 31198.61, 15106.31, -7313.94, -9321.55, -21399.92, 17731.08, -187500.02, -13782.69, -101514.16, 26278.32, 0.00, 0.00, 0.00
74, -7801.90, -15030.47, -187500.02, -187500.02, -12181.25, -7444.11, 31198.61, 15106.31, -7320.49, -9308.63, -21402.53, 17621.51, -187500.02, -13849.41, -101717.80, 26043.67, -0.83, -0.41, 0.32
75, -7815.96, -15025.38, -187500.02, -187500.02, -12126.40, -7338.70, 31309.41, 15271.23, -7320.49, -9308.63, -21402.53, 17621.51, -187500.02, -13849.41, -101717.80, 26043.67, 0.00, 0.00, 0.00
76, -7815.96, -15025.38, -187500.02, -187500.02, -12126.40, -7338.70, 31309.41, 15271.23, -7330.86, -9318.75, -21371.37, 17767.27, -187500.02, -13742.99, -101454.48, 26331.43, 0.00, 0.00, 0.00
77, -7802.81, -15037.65, -187500.02, -187500.02, -12182.06, -7376.52, 31272.19, 15198.72, -7330.86, -9318.75, -21371.37, 17767.27, -187500.02, -13742.99, -101454.48, 26331.43, 0.00, 0.00, 0.00
78, -7802.81, -15037.65, -187500.02, -187500.02, -12182.06, -7376.52, 31272.19, 15198.72, -7313.58, -9310.53, -21404.63, 17638.59, -187500.02, -13841.54, -101671.04, 26075.07, 0.00, 0.00, 0.00
79, -7808.38, -15018.52, -187500.02, -187500.02, -12131.72, -7293.46, 31361.53, 15322.86, -7313.58, -9310.53, -21404.63, 17638.59, -187500.02, -13841.54, -101671.04, 26075.07, 0.00, 0.00, 0.00
80, -7808.38, -15018.52, -187500.02, -187500.02, -12131.72, -7293.46, 31361.53, 15322.86, -7314.50, -9312.41, -21351.68, 17811.52, -187500.02, -13717.91, -101369.00, 26409.17, 0.00, 0.00, 0.00
81, -7789.05, -15026.50, -187500.02, -187500.02, -12176.78, -7339.64, 31331.58, 15274.24, -7314.50, -9312.41, -21351.68, 17811.52, -187500.02, -13717.91, -101369.00, 26409.17, 0.00, 0.00, 0.00
82, -7789.05, -15026.50, -187500.02, -187500.02, -12176.78, -7339.64, 31331.58, 15274.24, -7299.16, -9302.26, -21408.97, 17641.18, -187500.02, -13848.65, -101638.92, 26100.73, 0.00, 0.00, 0.00
83, -7799.60, -15009.89, -187500.02, -187500.02, -12131.39, -7298.51, 31377.42, 15335.06, -7299.16, -9302.26, -21408.97, 17641.18, -187500.02, -13848.65, -101638.92, 26100.73, 0.00, 0.00, 0.00
84, -7799.60, -15009.89, -187500.02, -187500.02, -12131.39, -7298.51, 31377.42, 15335.06, -7313.24, -9306.24, -21349.87, 17811.95, -187500.02, -13724.35, -101350.85, 26428.68, -0.84, -0.42, 0.32
85, -7789.98, -15023.75, -187500.02, -187500.02, -12178.17, -7335.28, 31357.42, 15320.11, -7313.24, -9306.24, -21349.87, 17811.95, -187500.02, -13724.35, -101350.85, 26428.68, 0.00, 0.00, 0.00
86, -7789.98, -15023.75, -187500.02, -187500.02, -12178.17, -7335.28, 31357.42, 15320.11, -7298.74, -9309.08, -21410.62, 17644.38, -187500.02, -13850.57, -101617.17, 26123.60, 0.00, 0.00, 0.00
87, -7799.55, -15007.65, -187500.02, -187500.02, -12137.13, -7307.19, 31370.87, 15332.63, -7298.74, -9309.08, -21410.62, 17644.38, -187500.02, -13850.57, -101617.17, 26123.60, 0.00, 0.00, 0.00
88, -7799.55, -15007.65, -187500.02, -187500.02, -12137.13, -7307.19, 31370.87, 15332.63, -7316.11, -9307.96, -21330.49, 17837.12, -187500.02, -13702.11, -101310.10, 26465.49, 0.00, 0.00, 0.00
89, -7789.07, -15020.53, -187500.02, -187500.02, -12173.39, -7301.40, 31403.93, 15386.69, -7316.11, -9307.96, -21330.49, 17837.12, -187500.02, -13702.11, -101310.10, 26465.49, 0.00, 0.00, 0.00
90, -7789.07, -15020.53, -187500.02, -187500.02, -12173.39, -7301.40, 31403.93, 15386.69, -7296.28, -9308.74, -21415.25, 17660.13, -187500.02, -13850.33, -101576.76, 26160.46, 0.00, 0.00, 0.00
91, -7797.54, -15014.69, -187500.02, -187500.02, -12138.25, -7323.75, 31358.80, 15323.15, -7296.28, -9308.74, -21415.25, 17660.13, -187500.02, -13850.33, -101576.76, 26160.46, 0.00, 0.00, 0.00
92, -7797.54, -15014.69, -187500.02, -187500.02, -12138.25, -7323.75, 31358.80, 15323.15, -7311.14, -9304.99, -21326.92, 17839.17, -187500.02, -13707.81, -101295.94, 26472.06, 0.00, 0.00, 0.00
93, -7787.97, -15025.07, -187500.02, -187500.02, -12167.22, -7288.46, 31429.32, 15436.70, -7311.14, -9304.99, -21326.92, 17839.17, -187500.02, -13707.81, -101295.94, 26472.06, 0.00, 0.00, 0.00
94, -7787.97, -15025.07, -187500.02, -187500.02, -12167.22, -7288.46, 31429.32, 15436.70, -7288.68, -9314.02, -21434.67, 17641.61, -187500.02, -13876.07, -101566.05, 26168.30, -0.84, -0.41, 0.32
95, -7790.90, -15007.47, -187500.02, -187500.02, -12146.70, -7370.06, 31314.64, 15281.64, -7288.68, -9314.02, -21434.67, 17641.61, -187500.02, -13876.07, -101566.05, 26168.30, 0.00, 0.00, 0.00
96, -7790.90, -15007.47, -187500.02, -187500.02, -12146.70, -7370.06, 31314.64, 15281.64, -7307.32, -9302.15, -21330.36, 17801.82, -187500.02, -13733.05, -101340.46, 26422.91, 0.00, 0.00, 0.00
97, -7781.96, -15014.14, -187500.02, -187500.02, -12161.87, -7305.18, 31416.25, 15440.14, -7307.32, -9302.15, -21330.36, 17801.82, -187500.02, -13733.05, -101340.46, 26422.91, 0.00, 0.00, 0.00
98, -7781.96, -15014.14, -187500.02, -187500.02, -12161.87, -7305.18, 31416.25, 15440.14, -7287.23, -9314.04, -21426.63, 17645.23, -187500.02, -13867.38, -101557.12, 26188.29, 0.00, 0.00, 0.00
99, -7785.96, -15002.78, -187500.02, -187500.02, -12159.35, -7389.69, 31292.93, 15262.60, -7287.23, -9314.04, -21426.63, 17645.23, -187500.02, -13867.38, -101557.12, 26188.29, 0.00, 0.00, 0.00
100, -7785.96, -15002.78, -187500.02, -187500.02, -12159.35, -7389.69, 31292.93, 15262.60, -7312.48, -9300.14, -21329.44, 17789.28, -187500.02, -13738.59, -101367.91, 26396.34, 0.00, 0.00, 0.00
101, -7786.79, -15011.05, -187500.02, -187500.02, -12155.19, -7282.69, 31442.18, 15479.86, -7312.48, -9300.14, -21329.44, 17789.28, -187500.02, -13738.59, -101367.91, 26396.34, 0.00, 0.00, 0.00
102, -7786.79, -15011.05, -187500.02, -187500.02, -12155.19, -7282.69, 31442.18, 15479.86, -7294.27, -9308.54, -21416.14, 17685.21, -187500.02, -13840.47, -101491.84, 26254.60, 0.00, 0.00, 0.00
