%OpenBCI Raw EEG Data
%
%Sample Rate = 250.0 Hz
%First Column = SampleIndex
%Other Columns = EEG data in microvolts followed by Accel Data (in G) interleaved with Aux Data
0, 0.00, 0.00, 0.00, 0.00, 0.00, 0.00, 0.00, 0.00, -4103.89, -4753.55, -11794.52, 9551.68, -93750.01, -8518.96, -39401.95, 11982.21, 0.00, 0.00, 0.00
1, -4213.06, -7275.92, -93750.01, -93750.01, -6937.04, -4934.66, 14853.07, 7222.14, -4103.89, -4753.55, -11794.52, 9551.68, -93750.01, -8518.96, -39401.95, 11982.21, -0.81, -0.39, 0.40
2, -4213.06, -7275.92, -93750.01, -93750.01, -6937.04, -4934.66, 14853.07, 7222.14, -7443.15, -10537.73, -22550.27, 18475.13, -187500.02, -15554.49, -131603.98, 16926.48, 0.00, 0.00, 0.00
3, -8445.45, -14566.36, -187500.02, -187500.02, -13847.64, -9713.33, 29907.66, 14724.39, -7443.15, -10537.73, -22550.27, 18475.13, -187500.02, -15554.49, -131603.98, 16926.48, 0.00, 0.00, 0.00
4, -8445.45, -14566.36, -187500.02, -187500.02, -13847.64, -9713.33, 29907.66, 14724.39, -7450.66, -10558.00, -22570.54, 18555.50, -187500.02, -15503.66, -131416.47, 17120.34, 0.00, 0.00, 0.00
5, -8429.60, -14565.47, -187500.02, -187500.02, -13895.50, -9813.76, 29786.56, 14543.23, -7450.66, -10558.00, -22570.54, 18555.50, -187500.02, -15503.66, -131416.47, 17120.34, 0.00, 0.00, 0.00
6, -8429.60, -14565.47, -187500.02, -187500.02, -13895.50, -9813.76, 29786.56, 14543.23, -7450.28, -10542.04, -22553.74, 18489.83, -187500.02, -15547.43, -131539.44, 16948.28, 0.00, 0.00, 0.00
7, -8446.08, -14559.61, -187500.02, -187500.02, -13848.45, -9697.39, 29931.40, 14749.92, -7450.28, -10542.04, -22553.74, 18489.83, -187500.02, -15547.43, -131539.44, 16948.28, 0.00, 0.00, 0.00
8, -8446.08, -14559.61, -187500.02, -187500.02, -13848.45, -9697.39, 29931.40, 14749.92, -7447.44, -10555.45, -22565.31, 18585.70, -187500.02, -15493.78, -131321.88, 17182.99, -0.83, -0.40, 0.33
9, -8432.71, -14565.92, -187500.02, -187500.02, -13910.09, -9822.12, 29791.81, 14561.49, -7447.44, -10555.45, -22565.31, 18585.70, -187500.02, -15493.78, -131321.88, 17182.99, 0.00, 0.00, 0.00
10, -8432.71, -14565.92, -187500.02, -187500.02, -13910.09, -9822.12, 29791.81, 14561.49, -7451.62, -10545.33, -22585.19, 18445.93, -187500.02, -15591.01, -131542.45, 16908.56, 0.00, 0.00, 0.00
11, -8446.21, -14565.56, -187500.02, -187500.02, -13861.72, -9750.05, 29873.80, 14693.79, -7451.62, -10545.33, -22585.19, 18445.93, -187500.02, -15591.01, -131542.45, 16908.56, 0.00, 0.00, 0.00
12, -8446.21, -14565.56, -187500.02, -187500.02, -13861.72, -9750.05, 29873.80, 14693.79, -7447.85, -10549.08, -22559.37, 18571.79, -187500.02, -15499.01, -131291.28, 17188.09, 0.00, 0.00, 0.00
13, -8418.74, -14562.85, -187500.02, -187500.02, -13910.45, -9841.74, 29777.24, 14563.46, -7447.85, -10549.08, -22559.37, 18571.79, -187500.02, -15499.01, -131291.28, 17188.09, 0.00, 0.00, 0.00
14, -8418.74, -14562.85, -187500.02, -187500.02, -13910.45, -9841.74, 29777.24, 14563.46, -7439.15, -10542.40, -22585.12, 18416.00, -187500.02, -15607.31, -131545.72, 16876.68, 0.00, 0.00, 0.00
15, -8439.24, -14560.06, -187500.02, -187500.02, -13850.44, -9791.29, 29832.11, 14647.10, -7439.15, -10542.40, -22585.12, 18416.00, -187500.02, -15607.31, -131545.72, 16876.68, 0.00, 0.00, 0.00
16, -8439.24, -14560.06, -187500.02, -187500.02, -13850.44, -9791.29, 29832.11, 14647.10, -7445.03, -10548.28, -22535.61, 18576.02, -187500.02, -15483.81, -131253.27, 17200.67, 0.00, 0.00, 0.00
17, -8428.95, -14563.68, -187500.02, -187500.02, -13884.32, -9816.86, 29819.24, 14616.79, -7445.03, -10548.28, -22535.61, 18576.02, -187500.02, -15483.81, -131253.27, 17200.67, 0.00, 0.00, 0.00
18, -8428.95, -14563.68, -187500.02, -187500.02, -13884.32, -9816.86, 29819.24, 14616.79, -7430.86, -10544.61, -22582.21, 18430.62, -187500.02, -15593.72, -131479.70, 16909.25, -0.83, -0.41, 0.32
19, -8432.53, -14555.30, -187500.02, -187500.02, -13836.02, -9784.90, 29843.89, 14651.34, -7430.86, -10544.61, -22582.21, 18430.62, -187500.02, -15593.72, -131479.70, 16909.25, 0.00, 0.00, 0.00
20, -8432.53, -14555.30, -187500.02, -187500.02, -13836.02, -9784.90, 29843.89, 14651.34, -7441.83, -10546.02, -22511.78, 18618.31, -187500.02, -15450.11, -131152.36, 17267.44, 0.00, 0.00, 0.00
21, -8418.00, -14562.65, -187500.02, -187500.02, -13881.93, -9798.38, 29845.23, 14661.07, -7441.83, -10546.02, -22511.78, 18618.31, -187500.02, -15450.11, -131152.36, 17267.44, 0.00, 0.00, 0.00
22, -8418.00, -14562.65, -187500.02, -187500.02, -13881.93, -9798.38, 29845.23, 14661.07, -7425.47, -10548.28, -22588.92, 18432.12, -187500.02, -15600.09, -131418.58, 16941.86, 0.00, 0.00, 0.00
23, -8428.17, -14555.70, -187500.02, -187500.02, -13847.73, -9795.83, 29827.60, 14630.71, -7425.47, -10548.28, -22588.92, 18432.12, -187500.02, -15600.09, -131418.58, 16941.86, 0.00, 0.00, 0.00
24, -8428.17, -14555.70, -187500.02, -187500.02, -13847.73, -9795.83, 29827.60, 14630.71, -7434.37, -10541.80, -22510.35, 18617.71, -187500.02, -15457.13, -131106.34, 17283.64, 0.00, 0.00, 0.00
25, -8410.71, -14564.66, -187500.02, -187500.02, -13880.57, -9783.34, 29864.63, 14688.31, -7434.37, -10541.80, -22510.35, 18617.71, -187500.02, -15457.13, -131106.34, 17283.64, 0.00, 0.00, 0.00
26, -8410.71, -14564.66, -187500.02, -187500.02, -13880.57, -9783.34, 29864.63, 14688.31, -7408.87, -10541.17, -22601.86, 18413.70, -187500.02, -15621.52, -131387.33, 16945.64, 0.00, 0.00, 0.00
27, -8418.34, -14554.70, -187500.02, -187500.02, -13852.14, -9846.70, 29765.04, 14555.37, -7408.87, -10541.17, -22601.86, 18413.70, -187500.02, -15621.52, -131387.33, 16945.64, 0.00, 0.00, 0.00
28, -8418.34, -14554.70, -187500.02, -187500.02, -13852.14, -9846.70, 29765.04, 14555.37, -7434.06, -10538.94, -22513.32, 18573.34, -187500.02, -15479.14, -131132.70, 17224.37, -0.83, -0.40, 0.33
29, -8417.85, -14565.54, -187500.02, -187500.02, -13875.69, -9803.88, 29836.40, 14667.30, -7434.06, -10538.94, -22513.32, 18573.34, -187500.02, -15479.14, -131132.70, 17224.37, 0.00, 0.00, 0.00
30, -8417.85, -14565.54, -187500.02, -187500.02, -13875.69, -9803.88, 29836.40, 14667.30, -7422.14, -10545.35, -22605.14, 18400.98, -187500.02, -15616.43, -131368.19, 16939.04, 0.00, 0.00, 0.00
31, -8421.98, -14553.13, -187500.02, -187500.02, -13862.69, -9875.20, 29717.16, 14502.53, -7422.14, -10545.35, -22605.14, 18400.98, -187500.02, -15616.43, -131368.19, 16939.04, 0.00, 0.00, 0.00
32, -8421.98, -14553.13, -187500.02, -187500.02, -13862.69, -9875.20, 29717.16, 14502.53, -7445.70, -10539.74, -22507.31, 18567.06, -187500.02, -15469.80, -131118.81, 17204.05, 0.00, 0.00, 0.00
33, -8424.75, -14567.73, -187500.02, -187500.02, -13866.42, -9768.92, 29859.98, 14704.25, -7445.70, -10539.74, -22507.31, 18567.06, -187500.02, -15469.80, -131118.81, 17204.05, 0.00, 0.00, 0.00
34, -8424.75, -14567.73, -187500.02, -187500.02, -13866.42, -9768.92, 29859.98, 14704.25, -7428.54, -10550.56, -22603.96, 18433.33, -187500.02, -15590.14, -131275.61, 17007.58, 0.00, 0.00, 0.00
35, -8431.14, -14562.85, -187500.02, -187500.02, -13861.05, -9859.85, 29726.86, 14516.61, -7428.54, -10550.56, -22603.96, 18433.33, -187500.02, -15590.14, -131275.61, 17007.58, 0.00, 0.00, 0.00
36, -8431.14, -14562.85, -187500.02, -187500.02, -13861.05, -9859.85, 29726.86, 14516.61, -7448.92, -10542.65, -22508.65, 18574.05, -187500.02, -15468.43, -131068.61, 17218.76, 0.00, 0.00, 0.00
37, -8428.02, -14571.64, -187500.02, -187500.02, -13860.34, -9742.57, 29887.41, 14749.63, -7448.92, -10542.65, -22508.65, 18574.05, -187500.02, -15468.43, -131068.61, 17218.76, 0.00, 0.00, 0.00
38, -8428.02, -14571.64, -187500.02, -187500.02, -13860.34, -9742.57, 29887.41, 14749.63, -7432.36, -10557.00, -22601.08, 18473.36, -187500.02, -15569.08, -131164.03, 17093.07, -0.83, -0.40, 0.34
39, -8433.09, -14567.10, -187500.02, -187500.02, -13877.59, -9840.74, 29741.54, 14540.70, -7432.36, -10557.00, -22601.08, 18473.36, -187500.02, -15569.08, -131164.03, 17093.07, 0.00, 0.00, 0.00
40, -8433.09, -14567.10, -187500.02, -187500.02, -13877.59, -9840.74, 29741.54, 14540.70, -7458.37, -10545.33, -22512.56, 18580.56, -187500.02, -15471.30, -131014.52, 17233.62, 0.00, 0.00, 0.00
41, -8433.07, -14570.83, -187500.02, -187500.02, -13860.70, -9692.25, 29937.99, 14816.08, -7458.37, -10545.33, -22512.56, 18580.56, -187500.02, -15471.30, -131014.52, 17233.62, 0.00, 0.00, 0.00
42, -8433.07, -14570.83, -187500.02, -187500.02, -13860.70, -9692.25, 29937.99, 14816.08, -7410.70, -10550.07, -22594.19, 18498.46, -187500.02, -15560.97, -131057.57, 17173.87, 0.00, 0.00, 0.00
43, -8417.29, -14553.20, -187500.02, -187500.02, -13882.89, -9841.16, 29741.90, 14551.92, -7410.70, -10550.07, -22594.19, 18498.46, -187500.02, -15560.97, -131057.57, 17173.87, 0.00, 0.00, 0.00
44, -8417.29, -14553.20, -187500.02, -187500.02, -13882.89, -9841.16, 29741.90, 14551.92, -7452.25, -10538.67, -22510.11, 18554.05, -187500.02, -15494.63, -130998.98, 17210.82, 0.00, 0.00, 0.00
45, -8438.05, -14571.84, -187500.02, -187500.02, -13861.55, -9692.88, 29938.69, 14829.11, -7452.25, -10538.67, -22510.11, 18554.05, -187500.02, -15494.63, -130998.98, 17210.82, 0.00, 0.00, 0.00
46, -8438.05, -14571.84, -187500.02, -187500.02, -13861.55, -9692.88, 29938.69, 14829.11, -7438.03, -10550.49, -22581.30, 18527.00, -187500.02, -15541.77, -130961.55, 17247.03, 0.00, 0.00, 0.00
47, -8429.51, -14567.95, -187500.02, -187500.02, -13896.26, -9844.33, 29768.61, 14588.04, -7438.03, -10550.49, -22581.30, 18527.00, -187500.02, -15541.77, -130961.55, 17247.03, 0.00, 0.00, 0.00
48, -8429.51, -14567.95, -187500.02, -187500.02, -13896.26, -9844.33, 29768.61, 14588.04, -7462.76, -10538.65, -22524.90, 18543.97, -187500.02, -15510.28, -130962.38, 17213.12, -0.83, -0.40, 0.34
49, -8444.87, -14568.91, -187500.02, -187500.02, -13857.54, -9739.66, 29944.18, 14841.85, -7462.76, -10538.65, -22524.90, 18543.97, -187500.02, -15510.28, -130962.38, 17213.12, 0.00, 0.00, 0.00
50, -8444.87, -14568.91, -187500.02, -187500.02, -13857.54, -9739.66, 29944.18, 14841.85, -7446.89, -10545.33, -22582.50, 18550.96, -187500.02, -15533.57, -130866.87, 17316.39, 0.00, 0.00, 0.00
51, -8427.05, -14567.59, -187500.02, -187500.02, -13897.46, -9952.83, 29730.77, 14566.21, -7446.89, -10545.33, -22582.50, 18550.96, -187500.02, -15533.57, -130866.87, 17316.39, 0.00, 0.00, 0.00
52, -8427.05, -14567.59, -187500.02, -187500.02, -13897.46, -9952.83, 29730.77, 14566.21, -7462.42, -10534.58, -22562.03, 18468.51, -187500.02, -15572.28, -131008.11, 17129.46, 0.00, 0.00, 0.00
53, -8443.30, -14575.19, -187500.02, -187500.02, -13846.50, -9864.09, 29866.13, 14772.85, -7462.42, -10534.58, -22562.03, 18468.51, -187500.02, -15572.28, -131008.11, 17129.46, 0.00, 0.00, 0.00
54, -8443.30, -14575.19, -187500.02, -187500.02, -13846.50, -9864.09, 29866.13, 14772.85, -7460.32, -10544.26, -22566.54, 18555.01, -187500.02, -15510.19, -130805.71, 17344.62, 0.00, 0.00, 0.00
55, -8425.53, -14576.69, -187500.02, -187500.02, -13898.43, -9988.08, 29736.74, 14588.71, -7460.32, -10544.26, -22566.54, 18555.01, -187500.02, -15510.19, -130805.71, 17344.62, 0.00, 0.00, 0.00
56, -8425.53, -14576.69, -187500.02, -187500.02, -13898.43, -9988.08, 29736.74, 14588.71, -7458.53, -10534.56, -22574.95, 18443.38, -187500.02, -15584.62, -130999.44, 17102.86, 0.00, 0.00, 0.00
57, -8434.81, -14570.19, -187500.02, -187500.02, -13850.73, -9923.95, 29817.72, 14719.07, -7458.53, -10534.56, -22574.95, 18443.38, -187500.02, -15584.62, -130999.44, 17102.86, 0.00, 0.00, 0.00
58, -8434.81, -14570.19, -187500.02, -187500.02, -13850.73, -9923.95, 29817.72, 14719.07, -7464.16, -10540.46, -22561.27, 18542.02, -187500.02, -15511.91, -130791.32, 17336.04, -0.83, -0.40, 0.34
59, -8427.08, -14585.92, -187500.02, -187500.02, -13905.47, -9995.66, 29727.42, 14580.89, -7464.16, -10540.46, -22561.27, 18542.02, -187500.02, -15511.91, -130791.32, 17336.04, 0.00, 0.00, 0.00
60, -8427.08, -14585.92, -187500.02, -187500.02, -13905.47, -9995.66, 29727.42, 14580.89, -7467.81, -10538.80, -22575.33, 18428.61, -187500.02, -15587.64, -130997.00, 17066.56, 0.00, 0.00, 0.00
61, -8441.81, -14585.76, -187500.02, -187500.02, -13853.99, -9889.35, 29829.07, 14710.08, -7467.81, -10538.80, -22575.33, 18428.61, -187500.02, -15587.64, -130997.00, 17066.56, 0.00, 0.00, 0.00
62, -8441.81, -14585.76, -187500.02, -187500.02, -13853.99, -9889.35, 29829.07, 14710.08, -7470.15, -10548.03, -22550.92, 18578.77, -187500.02, -15486.29, -130719.45, 17366.59, 0.00, 0.00, 0.00
63, -8422.41, -14590.03, -187500.02, -187500.02, -13902.85, -9952.11, 29740.52, 14586.88, -7470.15, -10548.03, -22550.92, 18578.77, -187500.02, -15486.29, -130719.45, 17366.59, 0.00, 0.00, 0.00
64, -8422.41, -14590.03, -187500.02, -187500.02, -13902.85, -9952.11, 29740.52, 14586.88, -7466.40, -10542.20, -22599.98, 18399.96, -187500.02, -15620.70, -131008.73, 17007.06, 0.00, 0.00, 0.00
65, -8437.47, -14577.87, -187500.02, -187500.02, -13846.99, -9885.08, 29769.17, 14621.77, -7466.40, -10542.20, -22599.98, 18399.96, -187500.02, -15620.70, -131008.73, 17007.06, 0.00, 0.00, 0.00
66, -8437.47, -14577.87, -187500.02, -187500.02, -13846.99, -9885.08, 29769.17, 14621.77, -7471.85, -10545.35, -22541.44, 18570.50, -187500.02, -15487.17, -130719.05, 17320.39, 0.00, 0.00, 0.00
67, -8421.24, -14583.78, -187500.02, -187500.02, -13891.16, -9893.93, 29740.34, 14581.14, -7471.85, -10545.35, -22541.44, 18570.50, -187500.02, -15487.17, -130719.05, 17320.39, 0.00, 0.00, 0.00
68, -8421.24, -14583.78, -187500.02, -187500.02, -13891.16, -9893.93, 29740.34, 14581.14, -7455.83, -10538.49, -22599.00, 18393.38, -187500.02, -15624.09, -131003.91, 16968.57, -0.83, -0.39, 0.33
69, -8432.11, -14575.57, -187500.02, -187500.02, -13852.49, -9860.85, 29732.02, 14565.16, -7455.83, -10538.49, -22599.00, 18393.38, -187500.02, -15624.09, -131003.91, 16968.57, 0.00, 0.00, 0.00
70, -8432.11, -14575.57, -187500.02, -187500.02, -13852.49, -9860.85, 29732.02, 14565.16, -7474.00, -10545.13, -22517.84, 18597.19, -187500.02, -15460.41, -130680.77, 17314.02, 0.00, 0.00, 0.00
71, -8418.83, -14587.06, -187500.02, -187500.02, -13895.97, -9817.69, 29787.54, 14634.04, -7474.00, -10545.13, -22517.84, 18597.19, -187500.02, -15460.41, -130680.77, 17314.02, 0.00, 0.00, 0.00
72, -8418.83, -14587.06, -187500.02, -187500.02, -13895.97, -9817.69, 29787.54, 14634.04, -7456.90, -10542.63, -22598.89, 18424.68, -187500.02, -15602.39, -130935.20, 16994.95, 0.00, 0.00, 0.00
73, -8428.51, -14575.08, -187500.02, -187500.02, -13862.73, -9837.47, 29738.06, 14562.16, -7456.90, -10542.63, -22598.89, 18424.68, -187500.02, -15602.39, -130935.20, 16994.95, 0.00, 0.00, 0.00
74, -8428.51, -14575.08, -187500.02, -187500.02, -13862.73, -9837.47, 29738.06, 14562.16, -7469.75, -10537.44, -22511.98, 18614.09, -187500.02, -15452.92, -130632.38, 17323.76, 0.00, 0.00, 0.00
75, -8419.03, -14586.73, -187500.02, -187500.02, -13880.52, -9808.26, 29808.64, 14667.04, -7469.75, -10537.44, -22511.98, 18614.09, -187500.02, -15452.92, -130632.38, 17323.76, 0.00, 0.00, 0.00
76, -8419.03, -14586.73, -187500.02, -187500.02, -13880.52, -9808.26, 29808.64, 14667.04, -7456.18, -10541.06, -22606.29, 18434.47, -187500.02, -15601.67, -130874.65, 17026.29, 0.00, 0.00, 0.00
77, -8440.13, -14585.72, -187500.02, -187500.02, -13861.99, -9859.04, 29736.31, 14551.23, -7456.18, -10541.06, -22606.29, 18434.47, -187500.02, -15601.67, -130874.65, 17026.29, 0.00, 0.00, 0.00
78, -8440.13, -14585.72, -187500.02, -187500.02, -13861.99, -9859.04, 29736.31, 14551.23, -7482.04, -10540.39, -22524.81, 18602.84, -187500.02, -15467.27, -130611.12, 17306.02, -0.83, -0.40, 0.33
79, -8430.65, -14596.54, -187500.02, -187500.02, -13876.28, -9813.53, 29824.69, 14692.67, -7482.04, -10540.39, -22524.81, 18602.84, -187500.02, -15467.27, -130611.12, 17306.02, 0.00, 0.00, 0.00
80, -8430.65, -14596.54, -187500.02, -187500.02, -13876.28, -9813.53, 29824.69, 14692.67, -7461.08, -10544.77, -22614.60, 18449.26, -187500.02, -15598.83, -130805.82, 17064.73, 0.00, 0.00, 0.00
81, -8436.13, -14584.51, -187500.02, -187500.02, -13866.66, -9893.87, 29702.25, 14516.27, -7461.08, -10544.77, -22614.60, 18449.26, -187500.02, -15598.83, -130805.82, 17064.73, 0.00, 0.00, 0.00
82, -8436.13, -14584.51, -187500.02, -187500.02, -13866.66, -9893.87, 29702.25, 14516.27, -7485.20, -10538.15, -22515.54, 18602.55, -187500.02, -15468.48, -130584.32, 17291.29, 0.00, 0.00, 0.00
83, -8436.44, -14591.82, -187500.02, -187500.02, -13871.49, -9776.45, 29855.92, 14733.75, -7485.20, -10538.15, -22515.54, 18602.55, -187500.02, -15468.48, -130584.32, 17291.29, 0.00, 0.00, 0.00
84, -8436.44, -14591.82, -187500.02, -187500.02, -13871.49, -9776.45, 29855.92, 14733.75, -7459.69, -10544.70, -22613.66, 18479.26, -187500.02, -15588.02, -130719.34, 17121.46, 0.00, 0.00, 0.00
85, -8430.70, -14579.91, -187500.02, -187500.02, -13878.62, -9881.08, 29692.88, 14503.24, -7459.69, -10544.70, -22613.66, 18479.26, -187500.02, -15588.02, -130719.34, 17121.46, 0.00, 0.00, 0.00
86, -8430.70, -14579.91, -187500.02, -187500.02, -13878.62, -9881.08, 29692.88, 14503.24, -7480.21, -10534.06, -22523.70, 18584.45, -187500.02, -15487.50, -130576.45, 17255.99, 0.00, 0.00, 0.00
87, -8430.99, -14590.06, -187500.02, -187500.02, -13864.70, -9768.32, 29841.32, 14719.23, -7480.21, -10534.06, -22523.70, 18584.45, -187500.02, -15487.50, -130576.45, 17255.99, 0.00, 0.00, 0.00
88, -8430.99, -14590.06, -187500.02, -187500.02, -13864.70, -9768.32, 29841.32, 14719.23, -7447.67, -10537.33, -22613.84, 18458.81, -187500.02, -15599.15, -130694.45, 17117.17, -0.83, -0.40, 0.33
89, -8420.33, -14582.10, -187500.02, -187500.02, -13876.61, -9904.95, 29645.68, 14446.56, -7447.67, -10537.33, -22613.84, 18458.81, -187500.02, -15599.15, -130694.45, 17117.17, 0.00, 0.00, 0.00
90, -8420.33, -14582.10, -187500.02, -187500.02, -13876.61, -9904.95, 29645.68, 14446.56, -7472.90, -10526.20, -22525.60, 18523.11, -187500.02, -15519.71, -130627.73, 17166.68, 0.00, 0.00, 0.00
91, -8437.09, -14593.65, -187500.02, -187500.02, -13854.88, -9749.52, 29840.14, 14711.52, -7472.90, -10526.20, -22525.60, 18523.11, -187500.02, -15519.71, -130627.73, 17166.68, 0.00, 0.00, 0.00
92, -8437.09, -14593.65, -187500.02, -187500.02, -13854.88, -9749.52, 29840.14, 14711.52, -7455.58, -10541.04, -22590.55, 18496.56, -187500.02, -15554.94, -130601.35, 17183.02, 0.00, 0.00, 0.00
93, -8422.79, -14584.02, -187500.02, -187500.02, -13892.48, -9885.75, 29660.76, 14459.50, -7455.58, -10541.04, -22590.55, 18496.56, -187500.02, -15554.94, -130601.35, 17183.02, 0.00, 0.00, 0.00
94, -8422.79, -14584.02, -187500.02, -187500.02, -13892.48, -9885.75, 29660.76, 14459.50, -7467.02, -10526.00, -22535.68, 18495.49, -187500.02, -15531.35, -130628.04, 17128.95, 0.00, 0.00, 0.00
95, -8432.82, -14589.05, -187500.02, -187500.02, -13852.22, -9752.74, 29831.29, 14701.19, -7467.02, -10526.00, -22535.68, 18495.49, -187500.02, -15531.35, -130628.04, 17128.95, 0.00, 0.00, 0.00
96, -8432.82, -14589.05, -187500.02, -187500.02, -13852.22, -9752.74, 29831.29, 14701.19, -7451.24, -10539.03, -22583.20, 18503.36, -187500.02, -15541.06, -130550.05, 17212.88, 0.00, 0.00, 0.00
97, -8419.95, -14579.22, -187500.02, -187500.02, -13890.74, -9892.35, 29650.24, 14452.19, -7451.24, -10539.03, -22583.20, 18503.36, -187500.02, -15541.06, -130550.05, 17212.88, -0.83, -0.40, 0.34
98, -8419.95, -14579.22, -187500.02, -187500.02, -13890.74, -9892.35, 29650.24, 14452.19, -7464.95, -10529.73, -22543.25, 18466.27, -187500.02, -15547.87, -130641.36, 17081.40, 0.00, 0.00, 0.00
99, -8433.22, -14583.35, -187500.02, -187500.02, -13841.07, -9744.58, 29820.62, 14693.59, -7464.95, -10529.73, -22543.25, 18466.27, -187500.02, -15547.87, -130641.36, 17081.40, 0.00, 0.00, 0.00
100, -8433.22, -14583.35, -187500.02, -187500.02, -13841.07, -9744.58, 29820.62, 14693.59, -7453.73, -10539.09, -22567.97, 18528.41, -187500.02, -15517.25, -130482.75, 17251.93, 0.00, 0.00, 0.00
101, -8412.06, -14581.58, -187500.02, -187500.02, -13895.61, -9866.60, 29662.46, 14476.06, -7453.73, -10539.09, -22567.97, 18528.41, -187500.02, -15517.25, -130482.75, 17251.93, 0.00, 0.00, 0.00
102, -8412.06, -14581.58, -187500.02, -187500.02, -13895.61, -9866.60, 29662.46, 14476.06, -7460.79, -10527.72, -22560.17, 18430.58, -187500.02, -15579.63, -130659.06, 17026.80, 0.00, 0.00, 0.00
103, -8439.66, -14585.23, -187500.02, -187500.02, -13842.93, -9736.84, 29803.68, 14671.80, -7460.79, -10527.72, -22560.17, 18430.58, -187500.02, -15579.63, -130659.06, 17026.80, 0.00, 0.00, 0.00
104, -8439.66, -14585.23, -187500.02, -187500.02, -13842.93, -9736.84, 29803.68, 14671.80, -7461.08, -10540.79, -22549.27, 18553.87, -187500.02, -15491.46, -130410.42, 17293.75, 0.00, 0.00, 0.00
105, -8422.58, -14588.60, -187500.02, -187500.02, -13898.05, -9830.72, 29695.57, 14514.66, -7461.08, -10540.79, -22549.27, 18553.87, -187500.02, -15491.46, -130410.42, 17293.75, 0.00, 0.00, 0.00
106, -8422.58, -14588.60, -187500.02, -187500.02, -13898.05, -9830.72, 29695.57, 14514.66, -7471.32, -10534.78, -22561.31, 18443.61, -187500.02, -15565.51, -130602.42, 17042.20, 0.00, 0.00, 0.00
107, -8443.48, -14591.04, -187500.02, -187500.02, -13848.54, -9720.55, 29831.67, 14689.95, -7471.32, -10534.78, -22561.31, 18443.61, -187500.02, -15565.51, -130602.42, 17042.20, -0.83, -0.40, 0.33
108, -8443.48, -14591.04, -187500.02, -187500.02, -13848.54, -9720.55, 29831.67, 14689.95, -7462.15, -10538.09, -22552.84, 18579.80, -187500.02, -15482.63, -130338.72, 17334.54, 0.00, 0.00, 0.00
109, -8414.69, -14588.71, -187500.02, -187500.02, -13908.31, -9858.37, 29701.22, 14530.80, -7462.15, -10538.09, -22552.84, 18579.80, -187500.02, -15482.63, -130338.72, 17334.54, 0.00, 0.00, 0.00
110, -8414.69, -14588.71, -187500.02, -187500.02, -13908.31, -9858.37, 29701.22, 14530.80, -7459.18, -10530.58, -22585.88, 18410.35, -187500.02, -15606.75, -130615.41, 17000.89, 0.00, 0.00, 0.00
111, -8441.63, -14590.41, -187500.02, -187500.02, -13852.45, -9798.65, 29783.12, 14631.74, -7459.18, -10530.58, -22585.88, 18410.35, -187500.02, -15606.75, -130615.41, 17000.89, 0.00, 0.00, 0.00
112, -8441.63, -14590.41, -187500.02, -187500.02, -13852.45, -9798.65, 29783.12, 14631.74, -7463.63, -10536.70, -22539.19, 18593.70, -187500.02, -15467.32, -130293.70, 17355.14, 0.00, 0.00, 0.00
113, -8416.75, -14589.68, -187500.02, -187500.02, -13898.31, -9876.65, 29727.60, 14565.18, -7463.63, -10536.70, -22539.19, 18593.70, -187500.02, -15467.32, -130293.70, 17355.14, 0.00, 0.00, 0.00
114, -8416.75, -14589.68, -187500.02, -187500.02, -13898.31, -9876.65, 29727.60, 14565.18, -7454.31, -10528.27, -22597.17, 18401.14, -187500.02, -15610.70, -130589.26, 17002.55, 0.00, 0.00, 0.00
115, -8438.68, -14584.74, -187500.02, -187500.02, -13847.64, -9850.32, 29749.66, 14588.40, -7454.31, -10528.27, -22597.17, 18401.14, -187500.02, -15610.70, -130589.26, 17002.55, 0.00, 0.00, 0.00
116, -8438.68, -14584.74, -187500.02, -187500.02, -13847.64, -9850.32, 29749.66, 14588.40, -7476.68, -10528.45, -22517.57, 18610.58, -187500.02, -15442.71, -130239.52, 17383.64, 0.00, 0.00, 0.00
117, -8431.59, -14592.34, -187500.02, -187500.02, -13889.17, -9841.07, 29787.90, 14632.32, -7476.68, -10528.45, -22517.57, 18610.58, -187500.02, -15442.71, -130239.52, 17383.64, -0.84, -0.40, 0.33
118, -8431.59, -14592.34, -187500.02, -187500.02, -13889.17, -9841.07, 29787.90, 14632.32, -7453.97, -10529.01, -22608.86, 18411.47, -187500.02, -15608.45, -130525.02, 17044.43, 0.00, 0.00, 0.00
119, -8438.50, -14585.29, -187500.02, -187500.02, -13853.48, -9882.53, 29718.23, 14545.87, -7453.97, -10529.01, -22608.86, 18411.47, -187500.02, -15608.45, -130525.02, 17044.43, 0.00, 0.00, 0.00
120, -8438.50, -14585.29, -187500.02, -187500.02, -13853.48, -9882.53, 29718.23, 14545.87, -7480.35, -10529.75, -22525.04, 18589.45, -187500.02, -15458.42, -130233.28, 17369.74, 0.00, 0.00, 0.00
121, -8435.06, -14601.99, -187500.02, -187500.02, -13884.66, -9848.54, 29780.03, 14630.89, -7480.35, -10529.75, -22525.04, 18589.45, -187500.02, -15458.42, -130233.28, 17369.74, 0.00, 0.00, 0.00
122, -8435.06, -14601.99, -187500.02, -187500.02, -13884.66, -9848.54, 29780.03, 14630.89, -7457.30, -10533.10, -22611.20, 18408.61, -187500.02, -15602.70, -130483.76, 17069.47, 0.00, 0.00, 0.00
123, -8437.83, -14589.07, -187500.02, -187500.02, -13863.83, -9892.26, 29700.48, 14516.79, -7457.30, -10533.10, -22611.20, 18408.61, -187500.02, -15602.70, -130483.76, 17069.47, 0.00, 0.00, 0.00
124, -8437.83, -14589.07, -187500.02, -187500.02, -13863.83, -9892.26, 29700.48, 14516.79, -7478.20, -10530.53, -22513.46, 18591.55, -187500.02, -15449.53, -130194.30, 17382.01, 0.00, 0.00, 0.00
125, -8439.42, -14604.23, -187500.02, -187500.02, -13878.09, -9818.05, 29808.49, 14668.04, -7478.20, -10530.53, -22513.46, 18591.55, -187500.02, -15449.53, -130194.30, 17382.01, 0.00, 0.00, 0.00
126, -8439.42, -14604.23, -187500.02, -187500.02, -13878.09, -9818.05, 29808.49, 14668.04, -7453.05, -10538.60, -22616.16, 18410.91, -187500.02, -15607.02, -130427.81, 17107.80, 0.00, 0.00, 0.00
127, -8440.31, -14589.70, -187500.02, -187500.02, -13870.35, -9903.01, 29669.57, 14478.43, -7453.05, -10538.60, -22616.16, 18410.91, -187500.02, -15607.02, -130427.81, 17107.80, -0.84, -0.40, 0.33
128, -8440.31, -14589.70, -187500.02, -187500.02, -13870.35, -9903.01, 29669.57, 14478.43, -7477.75, -10527.51, -22512.83, 18569.16, -187500.02, -15467.72, -130193.25, 17359.08, 0.00, 0.00, 0.00
129, -8433.04, -14596.40, -187500.02, -187500.02, -13876.37, -9794.53, 29809.13, 14678.50, -7477.75, -10527.51, -22512.83, 18569.16, -187500.02, -15467.72, -130193.25, 17359.08, 0.00, 0.00, 0.00
130, -8433.04, -14596.40, -187500.02, -187500.02, -13876.37, -9794.53, 29809.13, 14678.50, -7449.99, -10536.48, -22609.59, 18424.88, -187500.02, -15593.98, -130360.94, 17154.45, 0.00, 0.00, 0.00
131, -8427.26, -14587.49, -187500.02, -187500.02, -13878.67, -9891.23, 29653.28, 14463.19, -7449.99, -10536.48, -22609.59, 18424.88, -187500.02, -15593.98, -130360.94, 17154.45, 0.00, 0.00, 0.00
132, -8427.26, -14587.49, -187500.02, -187500.02, -13878.67, -9891.23, 29653.28, 14463.19, -7464.03, -10528.90, -22517.10, 18536.19, -187500.02, -15487.41, -130205.48, 17316.14, 0.00, 0.00, 0.00
133, -8429.16, -14596.16, -187500.02, -187500.02, -13864.03, -9766.48, 29808.06, 14688.27, -7464.03, -10528.90, -22517.10, 18536.19, -187500.02, -15487.41, -130205.48, 17316.14, 0.00, 0.00, 0.00
134, -8429.16, -14596.16, -187500.02, -187500.02, -13864.03, -9766.48, 29808.06, 14688.27, -7443.09, -10537.24, -22602.31, 18429.75, -187500.02, -15582.88, -130307.07, 17188.87, 0.00, 0.00, 0.00
135, -8424.69, -14585.85, -187500.02, -187500.02, -13872.23, -9872.90, 29652.54, 14458.16, -7443.09, -10537.24, -22602.31, 18429.75, -187500.02, -15582.88, -130307.07, 17188.87, 0.00, 0.00, 0.00
136, -8424.69, -14585.85, -187500.02, -187500.02, -13872.23, -9872.90, 29652.54, 14458.16, -7458.75, -10520.47, -22517.53, 18507.71, -187500.02, -15499.24, -130214.98, 17273.34, 0.00, 0.00, 0.00
137, -8427.05, -14587.04, -187500.02, -187500.02, -13848.51, -9744.02, 29818.03, 14695.51, -7458.75, -10520.47, -22517.53, 18507.71, -187500.02, -15499.24, -130214.98, 17273.34, -0.84, -0.40, 0.33
138, -8427.05, -14587.04, -187500.02, -187500.02, -13848.51, -9744.02, 29818.03, 14695.51, -7445.72, -10535.11, -22580.92, 18456.73, -187500.02, -15551.63, -130228.57, 17246.25, 0.00, 0.00, 0.00
139, -8419.46, -14587.37, -187500.02, -187500.02, -13874.76, -9848.13, 29672.68, 14474.97, -7445.72, -10535.11, -22580.92, 18456.73, -187500.02, -15551.63, -130228.57, 17246.25, 0.00, 0.00, 0.00
140, -8419.46, -14587.37, -187500.02, -187500.02, -13874.76, -9848.13, 29672.68, 14474.97, -7458.29, -10527.05, -22517.66, 18499.22, -187500.02, -15507.15, -130194.88, 17255.72, 0.00, 0.00, 0.00
141, -8427.86, -14592.94, -187500.02, -187500.02, -13845.56, -9717.20, 29844.03, 14722.24, -7458.29, -10527.05, -22517.66, 18499.22, -187500.02, -15507.15, -130194.88, 17255.72, 0.00, 0.00, 0.00
142, -8427.86, -14592.94, -187500.02, -187500.02, -13845.56, -9717.20, 29844.03, 14722.24, -7443.15, -10533.97, -22570.54, 18491.93, -187500.02, -15535.69, -130143.32, 17308.68, 0.00, 0.00, 0.00
143, -8417.67, -14587.98, -187500.02, -187500.02, -13886.00, -9853.61, 29672.05, 14478.39, -7443.15, -10533.97, -22570.54, 18491.93, -187500.02, -15535.69, -130143.32, 17308.68, 0.00, 0.00, 0.00
144, -8417.67, -14587.98, -187500.02, -187500.02, -13886.00, -9853.61, 29672.05, 14478.39, -7456.25, -10522.73, -22528.75, 18477.85, -187500.02, -15529.99, -130200.12, 17218.31, 0.00, 0.00, 0.00
145, -8428.64, -14585.63, -187500.02, -187500.02, -13844.13, -9728.13, 29837.68, 14712.95, -7456.25, -10522.73, -22528.75, 18477.85, -187500.02, -15529.99, -130200.12, 17218.31, 0.00, 0.00, 0.00
146, -8428.64, -14585.63, -187500.02, -187500.02, -13844.13, -9728.13, 29837.68, 14712.95, -7443.64, -10528.72, -22559.03, 18517.95, -187500.02, -15512.96, -130069.06, 17360.26, 0.00, 0.00, 0.00
147, -8415.41, -14580.78, -187500.02, -187500.02, -13889.71, -9853.01, 29691.92, 14502.06, -7443.64, -10528.72, -22559.03, 18517.95, -187500.02, -15512.96, -130069.06, 17360.26, -0.83, -0.40, 0.33
148, -8415.41, -14580.78, -187500.02, -187500.02, -13889.71, -9853.01, 29691.92, 14502.06, -7457.08, -10517.90, -22534.11, 18465.67, -187500.02, -15534.10, -130179.70, 17206.71, 0.00, 0.00, 0.00
149, -8432.46, -14580.53, -187500.02, -187500.02, -13845.47, -9732.35, 29850.15, 14717.75, -7457.08, -10517.90, -22534.11, 18465.67, -187500.02, -15534.10, -130179.70, 17206.71, 0.00, 0.00, 0.00
150, -8432.46, -14580.53, -187500.02, -187500.02, -13845.47, -9732.35, 29850.15, 14717.75, -7452.25, -10528.12, -22554.34, 18547.86, -187500.02, -15488.77, -129982.52, 17425.67, 0.00, 0.00, 0.00
151, -8415.39, -14581.74, -187500.02, -187500.02, -13899.07, -9868.47, 29703.03, 14516.70, -7452.25, -10528.12, -22554.34, 18547.86, -187500.02, -15488.77, -129982.52, 17425.67, 0.00, 0.00, 0.00
152, -8415.39, -14581.74, -187500.02, -187500.02, -13899.07, -9868.47, 29703.03, 14516.70, -7452.74, -10517.84, -22565.76, 18410.01, -187500.02, -15579.03, -130212.01, 17151.48, 0.00, 0.00, 0.00
153, -8435.97, -14578.43, -187500.02, -187500.02, -13845.54, -9788.81, 29801.51, 14658.59, -7452.74, -10517.84, -22565.76, 18410.01, -187500.02, -15579.03, -130212.01, 17151.48, 0.00, 0.00, 0.00
154, -8435.97, -14578.43, -187500.02, -187500.02, -13845.54, -9788.81, 29801.51, 14658.59, -7461.68, -10523.94, -22545.20, 18535.41, -187500.02, -15481.73, -129962.42, 17430.52, 0.00, 0.00, 0.00
155, -8420.10, -14586.28, -187500.02, -187500.02, -13899.86, -9876.61, 29707.52, 14526.55, -7461.68, -10523.94, -22545.20, 18535.41, -187500.02, -15481.73, -129962.42, 17430.52, 0.00, 0.00, 0.00
156, -8420.10, -14586.28, -187500.02, -187500.02, -13899.86, -9876.61, 29707.52, 14526.55, -7449.95, -10517.81, -22581.30, 18370.92, -187500.02, -15598.97, -130229.13, 17109.66, 0.00, 0.00, 0.00
157, -8428.44, -14581.25, -187500.02, -187500.02, -13852.90, -9827.32, 29756.56, 14604.79, -7449.95, -10517.81, -22581.30, 18370.92, -187500.02, -15598.97, -130229.13, 17109.66, -0.83, -0.40, 0.34
158, -8428.44, -14581.25, -187500.02, -187500.02, -13852.90, -9827.32, 29756.56, 14604.79, -7455.22, -10527.31, -22534.69, 18524.16, -187500.02, -15478.11, -129953.57, 17417.24, 0.00, 0.00, 0.00
159, -8418.16, -14589.43, -187500.02, -187500.02, -13904.62, -9880.01, 29704.84, 14529.24, -7455.22, -10527.31, -22534.69, 18524.16, -187500.02, -15478.11, -129953.57, 17417.24, 0.00, 0.00, 0.00
160, -8418.16, -14589.43, -187500.02, -187500.02, -13904.62, -9880.01, 29704.84, 14529.24, -7451.09, -10524.79, -22581.47, 18365.02, -187500.02, -15593.63, -130209.88, 17100.07, 0.00, 0.00, 0.00
161, -8437.69, -14581.41, -187500.02, -187500.02, -13865.88, -9830.99, 29740.92, 14574.63, -7451.09, -10524.79, -22581.47, 18365.02, -187500.02, -15593.63, -130209.88, 17100.07, 0.00, 0.00, 0.00
162, -8437.69, -14581.41, -187500.02, -187500.02, -13865.88, -9830.99, 29740.92, 14574.63, -7464.70, -10528.05, -22526.56, 18539.38, -187500.02, -15462.29, -129908.83, 17437.82, 0.00, 0.00, 0.00
163, -8434.36, -14590.59, -187500.02, -187500.02, -13909.74, -9844.89, 29746.51, 14579.28, -7464.70, -10528.05, -22526.56, 18539.38, -187500.02, -15462.29, -129908.83, 17437.82, 0.00, 0.00, 0.00
164, -8434.36, -14590.59, -187500.02, -187500.02, -13909.74, -9844.89, 29746.51, 14579.28, -7453.68, -10530.84, -22602.78, 18365.69, -187500.02, -15600.91, -130172.30, 17115.98, 0.00, 0.00, 0.00
165, -8436.44, -14584.42, -187500.02, -187500.02, -13870.17, -9856.07, 29714.38, 14541.62, -7453.68, -10530.84, -22602.78, 18365.69, -187500.02, -15600.91, -130172.30, 17115.98, 0.00, 0.00, 0.00
166, -8436.44, -14584.42, -187500.02, -187500.02, -13870.17, -9856.07, 29714.38, 14541.62, -7474.94, -10530.89, -22517.68, 18563.53, -187500.02, -15437.86, -129853.05, 17467.08, 0.00, 0.00, 0.00
167, -8432.67, -14597.79, -187500.02, -187500.02, -13903.05, -9823.14, 29779.07, 14622.29, -7474.94, -10530.89, -22517.68, 18563.53, -187500.02, -15437.86, -129853.05, 17467.08, -0.83, -0.40, 0.34
168, -8432.67, -14597.79, -187500.02, -187500.02, -13903.05, -9823.14, 29779.07, 14622.29, -7449.46, -10528.70, -22616.48, 18354.58, -187500.02, -15613.72, -130147.61, 17121.12, 0.00, 0.00, 0.00
169, -8444.06, -14585.41, -187500.02, -187500.02, -13875.09, -9883.74, 29681.71, 14494.57, -7449.46, -10528.70, -22616.48, 18354.58, -187500.02, -15613.72, -130147.61, 17121.12, 0.00, 0.00, 0.00
170, -8444.06, -14585.41, -187500.02, -187500.02, -13875.09, -9883.74, 29681.71, 14494.57, -7471.05, -10526.62, -22525.10, 18525.13, -187500.02, -15467.72, -129877.98, 17418.94, 0.00, 0.00, 0.00
171, -8435.21, -14597.23, -187500.02, -187500.02, -13899.59, -9835.55, 29755.60, 14601.17, -7471.05, -10526.62, -22525.10, 18525.13, -187500.02, -15467.72, -129877.98, 17418.94, 0.00, 0.00, 0.00
172, -8435.21, -14597.23, -187500.02, -187500.02, -13899.59, -9835.55, 29755.60, 14601.17, -7444.70, -10530.73, -22618.67, 18343.07, -187500.02, -15612.92, -130126.80, 17124.68, 0.00, 0.00, 0.00
173, -8439.82, -14589.50, -187500.02, -187500.02, -13880.19, -9903.16, 29641.52, 14437.24, -7444.70, -10530.73, -22618.67, 18343.07, -187500.02, -15612.92, -130126.80, 17124.68, 0.00, 0.00, 0.00
174, -8439.82, -14589.50, -187500.02, -187500.02, -13880.19, -9903.16, 29641.52, 14437.24, -7467.54, -10526.49, -22518.76, 18503.53, -187500.02, -15473.04, -129889.16, 17385.03, 0.00, 0.00, 0.00
175, -8436.00, -14602.66, -187500.02, -187500.02, -13884.10, -9802.47, 29773.04, 14618.00, -7467.54, -10526.49, -22518.76, 18503.53, -187500.02, -15473.04, -129889.16, 17385.03, 0.00, 0.00, 0.00
176, -8436.00, -14602.66, -187500.02, -187500.02, -13884.10, -9802.47, 29773.04, 14618.00, -7447.69, -10539.72, -22615.65, 18351.94, -187500.02, -15603.44, -130079.98, 17160.69, 0.00, 0.00, 0.00
177, -8436.91, -14591.22, -187500.02, -187500.02, -13887.43, -9897.53, 29625.07, 14408.43, -7447.69, -10539.72, -22615.65, 18351.94, -187500.02, -15603.44, -130079.98, 17160.69, -0.84, -0.40, 0.34
178, -8436.91, -14591.22, -187500.02, -187500.02, -13887.43, -9897.53, 29625.07, 14408.43, -7461.01, -10529.26, -22523.45, 18474.59, -187500.02, -15490.79, -129908.98, 17344.69, 0.00, 0.00, 0.00
179, -8440.13, -14603.98, -187500.02, -187500.02, -13881.48, -9777.88, 29780.03, 14623.49, -7461.01, -10529.26, -22523.45, 18474.59, -187500.02, -15490.79, -129908.98, 17344.69, 0.00, 0.00, 0.00
180, -8440.13, -14603.98, -187500.02, -187500.02, -13881.48, -9777.88, 29780.03, 14623.49, -7441.63, -10536.68, -22604.50, 18379.75, -187500.02, -15582.50, -130012.31, 17214.80, 0.00, 0.00, 0.00
181, -8428.71, -14588.94, -187500.02, -187500.02, -13892.06, -9901.82, 29604.62, 14378.07, -7441.63, -10536.68, -22604.50, 18379.75, -187500.02, -15582.50, -130012.31, 17214.80, 0.00, 0.00, 0.00
182, -8428.71, -14588.94, -187500.02, -187500.02, -13892.06, -9901.82, 29604.62, 14378.07, -7461.62, -10521.77, -22520.25, 18459.81, -187500.02, -15501.49, -129918.51, 17309.32, 0.00, 0.00, 0.00
183, -8442.16, -14606.31, -187500.02, -187500.02, -13867.16, -9745.32, 29800.87, 14644.62, -7461.62, -10521.77, -22520.25, 18459.81, -187500.02, -15501.49, -129918.51, 17309.32, 0.00, 0.00, 0.00
184, -8442.16, -14606.31, -187500.02, -187500.02, -13867.16, -9745.32, 29800.87, 14644.62, -7448.14, -10539.29, -22595.18, 18424.45, -187500.02, -15550.20, -129923.38, 17284.42, 0.00, 0.00, 0.00
185, -8429.31, -14589.43, -187500.02, -187500.02, -13899.14, -9884.97, 29617.85, 14390.54, -7448.14, -10539.29, -22595.18, 18424.45, -187500.02, -15550.20, -129923.38, 17284.42, 0.00, 0.00, 0.00
186, -8429.31, -14589.43, -187500.02, -187500.02, -13899.14, -9884.97, 29617.85, 14390.54, -7453.79, -10520.12, -22528.28, 18447.39, -187500.02, -15517.27, -129915.46, 17282.39, 0.00, 0.00, 0.00
187, -8438.48, -14590.30, -187500.02, -187500.02, -13867.33, -9753.18, 29787.48, 14634.16, -7453.79, -10520.12, -22528.28, 18447.39, -187500.02, -15517.27, -129915.46, 17282.39, -0.84, -0.40, 0.34
188, -8438.48, -14590.30, -187500.02, -187500.02, -13867.33, -9753.18, 29787.48, 14634.16, -7442.71, -10531.96, -22573.34, 18446.18, -187500.02, -15533.21, -129865.24, 17328.44, 0.00, 0.00, 0.00
189, -8421.35, -14586.79, -187500.02, -187500.02, -13906.47, -9876.50, 29630.43, 14402.93, -7442.71, -10531.96, -22573.34, 18446.18, -187500.02, -15533.21, -129865.24, 17328.44, 0.00, 0.00, 0.00
190, -8421.35, -14586.79, -187500.02, -187500.02, -13906.47, -9876.50, 29630.43, 14402.93, -7449.79, -10518.40, -22531.54, 18441.53, -187500.02, -15524.47, -129905.30, 17262.03, 0.00, 0.00, 0.00
191, -8434.59, -14587.28, -187500.02, -187500.02, -13866.98, -9739.68, 29799.34, 14643.70, -7449.79, -10518.40, -22531.54, 18441.53, -187500.02, -15524.47, -129905.30, 17262.03, 0.00, 0.00, 0.00
192, -8434.59, -14587.28, -187500.02, -187500.02, -13866.98, -9739.68, 29799.34, 14643.70, -7438.75, -10534.31, -22567.13, 18477.38, -187500.02, -15515.46, -129791.41, 17383.71, 0.00, 0.00, 0.00
193, -8418.29, -14584.65, -187500.02, -187500.02, -13914.32, -9871.16, 29631.51, 14408.78, -7438.75, -10534.31, -22567.13, 18477.38, -187500.02, -15515.46, -129791.41, 17383.71, 0.00, 0.00, 0.00
194, -8418.29, -14584.65, -187500.02, -187500.02, -13914.32, -9871.16, 29631.51, 14408.78, -7446.22, -10517.86, -22538.80, 18418.96, -187500.02, -15548.54, -129917.61, 17219.38, 0.00, 0.00, 0.00
195, -8432.49, -14587.22, -187500.02, -187500.02, -13866.58, -9750.86, 29778.04, 14619.92, -7446.22, -10517.86, -22538.80, 18418.96, -187500.02, -15548.54, -129917.61, 17219.38, 0.00, 0.00, 0.00
196, -8432.49, -14587.22, -187500.02, -187500.02, -13866.58, -9750.86, 29778.04, 14619.92, -7431.78, -10525.53, -22556.75, 18479.97, -187500.02, -15518.99, -129764.88, 17390.95, 0.00, 0.00, 0.00
197, -8416.62, -14585.81, -187500.02, -187500.02, -13910.07, -9883.63, 29621.78, 14403.06, -7431.78, -10525.53, -22556.75, 18479.97, -187500.02, -15518.99, -129764.88, 17390.95, -0.83, -0.40, 0.33
198, -8416.62, -14585.81, -187500.02, -187500.02, -13910.07, -9883.63, 29621.78, 14403.06, -7443.31, -10519.07, -22550.76, 18382.50, -187500.02, -15578.99, -129951.80, 17158.09, 0.00, 0.00, 0.00
199, -8430.29, -14591.31, -187500.02, -187500.02, -13853.61, -9783.09, 29742.86, 14576.89, -7443.31, -10519.07, -22550.76, 18382.50, -187500.02, -15578.99, -129951.80, 17158.09, 0.00, 0.00, 0.00
200, -8430.29, -14591.31, -187500.02, -187500.02, -13853.61, -9783.09, 29742.86, 14576.89, -7439.62, -10532.39, -22550.63, 18482.17, -187500.02, -15510.50, -129743.58, 17394.22, 0.00, 0.00, 0.00
201, -8420.53, -14591.87, -187500.02, -187500.02, -13902.00, -9881.84, 29629.40, 14415.04, -7439.62, -10532.39, -22550.63, 18482.17, -187500.02, -15510.50, -129743.58, 17394.22, 0.00, 0.00, 0.00
202, -8420.53, -14591.87, -187500.02, -187500.02, -13902.00, -9881.84, 29629.40, 14415.04, -7440.94, -10527.72, -22559.53, 18363.83, -187500.02, -15585.58, -129956.26, 17125.62, 0.00, 0.00, 0.00
203, -8435.73, -14593.14, -187500.02, -187500.02, -13850.84, -9784.63, 29735.37, 14556.13, -7440.94, -10527.72, -22559.53, 18363.83, -187500.02, -15585.58, -129956.26, 17125.62, 0.00, 0.00, 0.00
204, -8435.73, -14593.14, -187500.02, -187500.02, -13850.84, -9784.63, 29735.37, 14556.13, -7442.42, -10537.98, -22532.17, 18511.87, -187500.02, -15478.94, -129685.80, 17428.44, 0.00, 0.00, 0.00
205, -8424.80, -14603.18, -187500.02, -187500.02, -13901.17, -9848.47, 29670.82, 14466.25, -7442.42, -10537.98, -22532.17, 18511.87, -187500.02, -15478.94, -129685.80, 17428.44, 0.00, 0.00, 0.00
206, -8424.80, -14603.18, -187500.02, -187500.02, -13901.17, -9848.47, 29670.82, 14466.25, -7439.02, -10535.18, -22577.09, 18358.92, -187500.02, -15595.95, -129940.50, 17116.70, 0.00, 0.00, 0.00
207, -8438.59, -14602.19, -187500.02, -187500.02, -13853.92, -9793.37, 29725.20, 14535.96, -7439.02, -10535.18, -22577.09, 18358.92, -187500.02, -15595.95, -129940.50, 17116.70, -0.83, -0.40, 0.33
208, -8438.59, -14602.19, -187500.02, -187500.02, -13853.92, -9793.37, 29725.20, 14535.96, -7440.07, -10539.38, -22523.23, 18528.97, -187500.02, -15467.83, -129641.34, 17450.34, 0.00, 0.00, 0.00
209, -8424.71, -14610.46, -187500.02, -187500.02, -13903.88, -9826.99, 29705.62, 14506.06, -7440.07, -10539.38, -22523.23, 18528.97, -187500.02, -15467.83, -129641.34, 17450.34, 0.00, 0.00, 0.00
210, -8424.71, -14610.46, -187500.02, -187500.02, -13903.88, -9826.99, 29705.62, 14506.06, -7419.46, -10532.48, -22591.31, 18331.87, -187500.02, -15623.09, -129940.86, 17094.01, 0.00, 0.00, 0.00
211, -8424.42, -14593.88, -187500.02, -187500.02, -13867.25, -9843.95, 29671.04, 14467.10, -7419.46, -10532.48, -22591.31, 18331.87, -187500.02, -15623.09, -129940.86, 17094.01, 0.00, 0.00, 0.00
212, -8424.42, -14593.88, -187500.02, -187500.02, -13867.25, -9843.95, 29671.04, 14467.10, -7435.33, -10533.80, -22515.58, 18497.43, -187500.02, -15483.66, -129662.11, 17405.64, 0.00, 0.00, 0.00
213, -8426.03, -14605.30, -187500.02, -187500.02, -13895.61, -9818.12, 29713.69, 14521.44, -7435.33, -10533.80, -22515.58, 18497.43, -187500.02, -15483.66, -129662.11, 17405.64, 0.00, 0.00, 0.00
214, -8426.03, -14605.30, -187500.02, -187500.02, -13895.61, -9818.12, 29713.69, 14521.44, -7419.35, -10532.48, -22585.95, 18338.60, -187500.02, -15607.69, -129904.29, 17108.58, 0.00, 0.00, 0.00
215, -8423.63, -14589.81, -187500.02, -187500.02, -13857.34, -9853.36, 29648.80, 14435.34, -7419.35, -10532.48, -22585.95, 18338.60, -187500.02, -15607.69, -129904.29, 17108.58, 0.00, 0.00, 0.00
216, -8423.63, -14589.81, -187500.02, -187500.02, -13857.34, -9853.36, 29648.80, 14435.34, -7434.41, -10524.74, -22497.03, 18506.26, -187500.02, -15466.04, -129637.14, 17411.09, 0.00, 0.00, 0.00
217, -8427.61, -14602.33, -187500.02, -187500.02, -13876.37, -9789.82, 29744.43, 14557.36, -7434.41, -10524.74, -22497.03, 18506.26, -187500.02, -15466.04, -129637.14, 17411.09, -0.84, -0.40, 0.34
218, -8427.61, -14602.33, -187500.02, -187500.02, -13876.37, -9789.82, 29744.43, 14557.36, -7418.16, -10532.48, -22576.31, 18368.91, -187500.02, -15581.69, -129837.79, 17159.12, 0.00, 0.00, 0.00
219, -8427.88, -14592.89, -187500.02, -187500.02, -13862.48, -9832.89, 29675.96, 14449.22, -7418.16, -10532.48, -22576.31, 18368.91, -187500.02, -15581.69, -129837.79, 17159.12, 0.00, 0.00, 0.00
220, -8427.88, -14592.89, -187500.02, -187500.02, -13862.48, -9832.89, 29675.96, 14449.22, -7439.20, -10525.48, -22494.59, 18536.90, -187500.02, -15450.44, -129576.55, 17441.09, 0.00, 0.00, 0.00
221, -8427.05, -14599.78, -187500.02, -187500.02, -13876.14, -9763.44, 29795.37, 14614.17, -7439.20, -10525.48, -22494.59, 18536.90, -187500.02, -15450.44, -129576.55, 17441.09, 0.00, 0.00, 0.00
222, -8427.05, -14599.78, -187500.02, -187500.02, -13876.14, -9763.44, 29795.37, 14614.17, -7410.52, -10527.51, -22599.24, 18369.42, -187500.02, -15599.68, -129795.73, 17182.88, 0.00, 0.00, 0.00
223, -8412.55, -14579.15, -187500.02, -187500.02, -13871.04, -9903.52, 29609.69, 14372.60, -7410.52, -10527.51, -22599.24, 18369.42, -187500.02, -15599.68, -129795.73, 17182.88, 0.00, 0.00, 0.00
224, -8412.55, -14579.15, -187500.02, -187500.02, -13871.04, -9903.52, 29609.69, 14372.60, -7432.36, -10518.75, -22503.24, 18473.96, -187500.02, -15493.09, -129648.90, 17350.00, 0.00, 0.00, 0.00
225, -8426.21, -14599.80, -187500.02, -187500.02, -13870.17, -9796.30, 29751.76, 14571.03, -7432.36, -10518.75, -22503.24, 18473.96, -187500.02, -15493.09, -129648.90, 17350.00, 0.00, 0.00, 0.00
226, -8426.21, -14599.80, -187500.02, -187500.02, -13870.17, -9796.30, 29751.76, 14571.03, -7416.62, -10530.53, -22584.07, 18365.11, -187500.02, -15587.77, -129780.02, 17185.03, 0.00, 0.00, 0.00
227, -8421.38, -14591.69, -187500.02, -187500.02, -13880.34, -9886.31, 29616.26, 14367.66, -7416.62, -10530.53, -22584.07, 18365.11, -187500.02, -15587.77, -129780.02, 17185.03, -0.84, -0.40, 0.34
228, -8421.38, -14591.69, -187500.02, -187500.02, -13880.34, -9886.31, 29616.26, 14367.66, -7435.84, -10520.99, -22505.10, 18465.36, -187500.02, -15492.80, -129643.55, 17323.92, 0.00, 0.00, 0.00
229, -8430.43, -14600.58, -187500.02, -187500.02, -13872.01, -9777.75, 29761.46, 14581.92, -7435.84, -10520.99, -22505.10, 18465.36, -187500.02, -15492.80, -129643.55, 17323.92, 0.00, 0.00, 0.00
230, -8430.43, -14600.58, -187500.02, -187500.02, -13872.01, -9777.75, 29761.46, 14581.92, -7427.48, -10538.38, -22585.83, 18381.43, -187500.02, -15573.02, -129721.34, 17228.95, 0.00, 0.00, 0.00
231, -8433.96, -14600.32, -187500.02, -187500.02, -13888.79, -9879.16, 29616.55, 14360.33, -7427.48, -10538.38, -22585.83, 18381.43, -187500.02, -15573.02, -129721.34, 17228.95, 0.00, 0.00, 0.00
232, -8433.96, -14600.32, -187500.02, -187500.02, -13888.79, -9879.16, 29616.55, 14360.33, -7446.71, -10528.21, -22505.77, 18471.75, -187500.02, -15493.07, -129619.95, 17319.99, 0.00, 0.00, 0.00
233, -8434.01, -14605.77, -187500.02, -187500.02, -13862.75, -9744.44, 29799.39, 14615.80, -7446.71, -10528.21, -22505.77, 18471.75, -187500.02, -15493.07, -129619.95, 17319.99, 0.00, 0.00, 0.00
234, -8434.01, -14605.77, -187500.02, -187500.02, -13862.75, -9744.44, 29799.39, 14615.80, -7418.01, -10533.75, -22584.43, 18401.36, -187500.02, -15575.86, -129660.32, 17275.10, 0.00, 0.00, 0.00
235, -8423.57, -14600.76, -187500.02, -187500.02, -13890.29, -9906.23, 29592.63, 14335.60, -7418.01, -10533.75, -22584.43, 18401.36, -187500.02, -15575.86, -129660.32, 17275.10, 0.00, 0.00, 0.00
236, -8423.57, -14600.76, -187500.02, -187500.02, -13890.29, -9906.23, 29592.63, 14335.60, -7444.49, -10524.70, -22520.86, 18415.09, -187500.02, -15536.16, -129674.94, 17235.77, 0.00, 0.00, 0.00
237, -8438.07, -14610.91, -187500.02, -187500.02, -13856.18, -9742.28, 29793.38, 14608.94, -7444.49, -10524.70, -22520.86, 18415.09, -187500.02, -15536.16, -129674.94, 17235.77, -0.84, -0.40, 0.34
238, -8438.07, -14610.91, -187500.02, -187500.02, -13856.18, -9742.28, 29793.38, 14608.94, -7432.42, -10541.73, -22567.93, 18442.16, -187500.02, -15534.66, -129573.84, 17341.06, 0.00, 0.00, 0.00
239, -8425.94, -14608.83, -187500.02, -187500.02, -13898.54, -9859.09, 29639.66, 14386.12, -7432.42, -10541.73, -22567.93, 18442.16, -187500.02, -15534.66, -129573.84, 17341.06, 0.00, 0.00, 0.00
240, -8425.94, -14608.83, -187500.02, -187500.02, -13898.54, -9859.09, 29639.66, 14386.12, -7437.72, -10530.64, -22531.45, 18404.00, -187500.02, -15550.62, -129662.35, 17219.00, 0.00, 0.00, 0.00
241, -8437.05, -14610.37, -187500.02, -187500.02, -13852.65, -9721.58, 29802.79, 14616.50, -7437.72, -10530.64, -22531.45, 18404.00, -187500.02, -15550.62, -129662.35, 17219.00, 0.00, 0.00, 0.00
242, -8437.05, -14610.37, -187500.02, -187500.02, -13852.65, -9721.58, 29802.79, 14616.50, -7429.03, -10541.57, -22553.45, 18456.15, -187500.02, -15527.44, -129517.49, 17374.32, 0.00, 0.00, 0.00
243, -8421.62, -14606.04, -187500.02, -187500.02, -13898.18, -9844.94, 29651.87, 14403.33, -7429.03, -10541.57, -22553.45, 18456.15, -187500.02, -15527.44, -129517.49, 17374.32, 0.00, 0.00, 0.00
244, -8421.62, -14606.04, -187500.02, -187500.02, -13898.18, -9844.94, 29651.87, 14403.33, -7433.56, -10528.90, -22539.03, 18378.61, -187500.02, -15569.53, -129665.39, 17178.92, 0.00, 0.00, 0.00
245, -8428.73, -14608.67, -187500.02, -187500.02, -13849.34, -9740.40, 29796.17, 14607.56, -7433.56, -10528.90, -22539.03, 18378.61, -187500.02, -15569.53, -129665.39, 17178.92, 0.00, 0.00, 0.00
246, -8428.73, -14608.67, -187500.02, -187500.02, -13849.34, -9740.40, 29796.17, 14607.56, -7427.31, -10533.59, -22543.03, 18469.94, -187500.02, -15506.39, -129463.40, 17409.06, 0.00, 0.00, 0.00
247, -8414.16, -14607.02, -187500.02, -187500.02, -13900.57, -9898.16, 29647.29, 14405.97, -7427.31, -10533.59, -22543.03, 18469.94, -187500.02, -15506.39, -129463.40, 17409.06, -0.83, -0.40, 0.34
248, -8414.16, -14607.02, -187500.02, -187500.02, -13900.57, -9898.16, 29647.29, 14405.97, -7432.65, -10515.40, -22553.71, 18322.62, -187500.02, -15598.86, -129712.13, 17116.79, 0.00, 0.00, 0.00
249, -8436.08, -14611.00, -187500.02, -187500.02, -13844.16, -9834.66, 29753.86, 14551.19, -7432.65, -10515.40, -22553.71, 18322.62, -187500.02, -15598.86, -129712.13, 17116.79, 0.00, 0.00, 0.00
250, -8436.08, -14611.00, -187500.02, -187500.02, -13844.16, -9834.66, 29753.86, 14551.19, -7441.16, -10527.49, -22530.65, 18461.76, -187500.02, -15488.35, -129446.70, 17410.02, 0.00, 0.00, 0.00
251, -8423.43, -14620.14, -187500.02, -187500.02, -13901.80, -9953.48, 29656.99, 14420.83, -7441.16, -10527.49, -22530.65, 18461.76, -187500.02, -15488.35, -129446.70, 17410.02, 0.00, 0.00, 0.00
252, -8423.43, -14620.14, -187500.02, -187500.02, -13901.80, -9953.48, 29656.99, 14420.83, -7444.40, -10523.71, -22569.96, 18301.72, -187500.02, -15600.96, -129704.80, 17092.20, 0.00, 0.00, 0.00
253, -8431.37, -14619.65, -187500.02, -187500.02, -13851.33, -9935.48, 29694.02, 14485.34, -7444.40, -10523.71, -22569.96, 18301.72, -187500.02, -15600.96, -129704.80, 17092.20, 0.00, 0.00, 0.00
254, -8431.37, -14619.65, -187500.02, -187500.02, -13851.33, -9935.48, 29694.02, 14485.34, -7447.82, -10532.23, -22534.76, 18427.13, -187500.02, -15502.57, -129461.63, 17366.95, 0.00, 0.00, 0.00
255, -8420.68, -14625.35, -187500.02, -187500.02, -13897.17, -10022.30, 29622.92, 14391.91, -7447.82, -10532.23, -22534.76, 18427.13, -187500.02, -15502.57, -129461.63, 17366.95, 0.00, 0.00, 0.00
0, -8420.68, -14625.35, -187500.02, -187500.02, -13897.17, -10022.30, 29622.92, 14391.91, -7443.91, -10528.95, -22587.69, 18240.65, -187500.02, -15634.82, -129763.09, 17003.17, 0.00, 0.00, 0.00
1, -8433.87, -14618.73, -187500.02, -187500.02, -13850.64, -10002.14, 29626.03, 14392.18, -7443.91, -10528.95, -22587.69, 18240.65, -187500.02, -15634.82, -129763.09, 17003.17, -0.83, -0.40, 0.34
2, -8433.87, -14618.73, -187500.02, -187500.02, -13850.64, -10002.14, 29626.03, 14392.18, -7456.99, -10533.84, -22517.06, 18412.76, -187500.02, -15493.54, -129479.74, 17313.44, 0.00, 0.00, 0.00
3, -8418.74, -14630.04, -187500.02, -187500.02, -13893.24, -10001.85, 29626.68, 14388.09, -7456.99, -10533.84, -22517.06, 18412.76, -187500.02, -15493.54, -129479.74, 17313.44, 0.00, 0.00, 0.00
4, -8418.74, -14630.04, -187500.02, -187500.02, -13893.24, -10001.85, 29626.68, 14388.09, -7438.68, -10528.23, -22593.46, 18206.48, -187500.02, -15652.01, -129802.34, 16925.28, 0.00, 0.00, 0.00
5, -8418.29, -14615.40, -187500.02, -187500.02, -13850.10, -9988.61, 29582.98, 14317.23, -7438.68, -10528.23, -22593.46, 18206.48, -187500.02, -15652.01, -129802.34, 16925.28, 0.00, 0.00, 0.00
6, -8418.29, -14615.40, -187500.02, -187500.02, -13850.10, -9988.61, 29582.98, 14317.23, -7449.79, -10524.56, -22506.91, 18379.75, -187500.02, -15501.45, -129535.33, 17212.21, 0.00, 0.00, 0.00
7, -8411.54, -14625.48, -187500.02, -187500.02, -13871.58, -9926.92, 29638.28, 14379.91, -7449.79, -10524.56, -22506.91, 18379.75, -187500.02, -15501.45, -129535.33, 17212.21, 0.00, 0.00, 0.00
8, -8411.54, -14625.48, -187500.02, -187500.02, -13871.58, -9926.92, 29638.28, 14379.91, -7432.27, -10524.90, -22597.97, 18179.16, -187500.02, -15655.18, -129840.25, 16844.90, 0.00, 0.00, 0.00
9, -8419.21, -14609.64, -187500.02, -187500.02, -13845.77, -9965.95, 29526.70, 14217.68, -7432.27, -10524.90, -22597.97, 18179.16, -187500.02, -15655.18, -129840.25, 16844.90, 0.00, 0.00, 0.00
10, -8419.21, -14609.64, -187500.02, -187500.02, -13845.77, -9965.95, 29526.70, 14217.68, -7459.85, -10523.29, -22506.46, 18331.80, -187500.02, -15510.41, -129618.55, 17081.47, 0.00, 0.00, 0.00
11, -8420.59, -14631.07, -187500.02, -187500.02, -13865.08, -9869.37, 29625.89, 14342.33, -7459.85, -10523.29, -22506.46, 18331.80, -187500.02, -15510.41, -129618.55, 17081.47, -0.83, -0.40, 0.34
12, -8420.59, -14631.07, -187500.02, -187500.02, -13865.08, -9869.37, 29625.89, 14342.33, -7437.88, -10529.86, -22600.29, 18164.17, -187500.02, -15645.30, -129864.93, 16778.54, 0.00, 0.00, 0.00
13, -8418.67, -14621.93, -187500.02, -187500.02, -13857.12, -9940.98, 29494.00, 14151.29, -7437.88, -10529.86, -22600.29, 18164.17, -187500.02, -15645.30, -129864.93, 16778.54, 0.00, 0.00, 0.00
14, -8418.67, -14621.93, -187500.02, -187500.02, -13857.12, -9940.98, 29494.00, 14151.29, -7462.87, -10527.16, -22510.15, 18300.07, -187500.02, -15517.52, -129676.57, 16978.76, 0.00, 0.00, 0.00
15, -8423.63, -14635.45, -187500.02, -187500.02, -13866.80, -9853.83, 29611.68, 14314.30, -7462.87, -10527.16, -22510.15, 18300.07, -187500.02, -15517.52, -129676.57, 16978.76, 0.00, 0.00, 0.00
16, -8423.63, -14635.45, -187500.02, -187500.02, -13866.80, -9853.83, 29611.68, 14314.30, -7439.91, -10531.16, -22614.35, 18135.09, -187500.02, -15651.99, -129900.47, 16718.54, 0.00, 0.00, 0.00
17, -8425.49, -14621.53, -187500.02, -187500.02, -13864.21, -9981.95, 29434.72, 14064.05, -7439.91, -10531.16, -22614.35, 18135.09, -187500.02, -15651.99, -129900.47, 16718.54, 0.00, 0.00, 0.00
18, -8425.49, -14621.53, -187500.02, -187500.02, -13864.21, -9981.95, 29434.72, 14064.05, -7463.54, -10524.54, -22511.92, 18251.43, -187500.02, -15531.69, -129764.30, 16855.65, 0.00, 0.00, 0.00
19, -8435.01, -14634.36, -187500.02, -187500.02, -13859.69, -9868.94, 29596.21, 14280.75, -7463.54, -10524.54, -22511.92, 18251.43, -187500.02, -15531.69, -129764.30, 16855.65, 0.00, 0.00, 0.00
20, -8435.01, -14634.36, -187500.02, -187500.02, -13859.69, -9868.94, 29596.21, 14280.75, -7444.45, -10536.95, -22610.22, 18129.63, -187500.02, -15640.77, -129915.40, 16677.15, 0.00, 0.00, 0.00
21, -8433.27, -14627.32, -187500.02, -187500.02, -13872.36, -10008.04, 29408.72, 14007.88, -7444.45, -10536.95, -22610.22, 18129.63, -187500.02, -15640.77, -129915.40, 16677.15, -0.83, -0.40, 0.33
22, -8433.27, -14627.32, -187500.02, -187500.02, -13872.36, -10008.04, 29408.72, 14007.88, -7470.96, -10532.68, -22524.57, 18206.48, -187500.02, -15552.79, -129846.40, 16734.53, 0.00, 0.00, 0.00
23, -8433.42, -14636.84, -187500.02, -187500.02, -13856.00, -9884.23, 29564.83, 14223.96, -7470.96, -10532.68, -22524.57, 18206.48, -187500.02, -15552.79, -129846.40, 16734.53, 0.00, 0.00, 0.00
24, -8433.42, -14636.84, -187500.02, -187500.02, -13856.00, -9884.23, 29564.83, 14223.96, -7446.64, -10541.24, -22613.88, 18099.71, -187500.02, -15643.09, -129957.27, 16602.85, 0.00, 0.00, 0.00
25, -8426.23, -14624.59, -187500.02, -187500.02, -13875.67, -10032.04, 29354.48, 13920.78, -7446.64, -10541.24, -22613.88, 18099.71, -187500.02, -15643.09, -129957.27, 16602.85, 0.00, 0.00, 0.00
26, -8426.23, -14624.59, -187500.02, -187500.02, -13875.67, -10032.04, 29354.48, 13920.78, -7465.68, -10529.71, -22539.70, 18116.13, -187500.02, -15594.83, -129988.89, 16543.04, 0.00, 0.00, 0.00
27, -8437.51, -14632.64, -187500.02, -187500.02, -13841.63, -9876.07, 29527.53, 14149.62, -7465.68, -10529.71, -22539.70, 18116.13, -187500.02, -15594.83, -129988.89, 16543.04, 0.00, 0.00, 0.00
28, -8437.51, -14632.64, -187500.02, -187500.02, -13841.63, -9876.07, 29527.53, 14149.62, -7445.75, -10543.18, -22592.18, 18095.23, -187500.02, -15614.62, -129985.47, 16536.60, 0.00, 0.00, 0.00
29, -8417.58, -14626.00, -187500.02, -187500.02, -13881.86, -10012.31, 29324.57, 13857.63, -7445.75, -10543.18, -22592.18, 18095.23, -187500.02, -15614.62, -129985.47, 16536.60, 0.00, 0.00, 0.00
30, -8417.58, -14626.00, -187500.02, -187500.02, -13881.86, -10012.31, 29324.57, 13857.63, -7457.61, -10526.49, -22550.50, 18050.04, -187500.02, -15616.81, -130113.32, 16372.09, 0.00, 0.00, 0.00
31, -8430.79, -14631.21, -187500.02, -187500.02, -13838.97, -9875.47, 29464.31, 14052.68, -7457.61, -10526.49, -22550.50, 18050.04, -187500.02, -15616.81, -130113.32, 16372.09, -0.84, -0.40, 0.33
32, -8430.79, -14631.21, -187500.02, -187500.02, -13838.97, -9875.47, 29464.31, 14052.68, -7442.19, -10534.00, -22589.19, 18051.29, -187500.02, -15619.71, -130071.84, 16421.65, 0.00, 0.00, 0.00
33, -8411.52, -14622.02, -187500.02, -187500.02, -13886.60, -10026.52, 29252.49, 13761.05, -7442.19, -10534.00, -22589.19, 18051.29, -187500.02, -15619.71, -130071.84, 16421.65, 0.00, 0.00, 0.00
34, -8411.52, -14622.02, -187500.02, -187500.02, -13886.60, -10026.52, 29252.49, 13761.05, -7452.47, -10519.20, -22558.18, 17967.25, -187500.02, -15655.83, -130274.16, 16176.56, 0.00, 0.00, 0.00
35, -8433.47, -14624.50, -187500.02, -187500.02, -13832.96, -9901.51, 29387.18, 13940.87, -7452.47, -10519.20, -22558.18, 17967.25, -187500.02, -15655.83, -130274.16, 16176.56, 0.00, 0.00, 0.00
36, -8433.47, -14624.50, -187500.02, -187500.02, -13832.96, -9901.51, 29387.18, 13940.87, -7455.67, -10531.38, -22566.14, 18056.59, -187500.02, -15585.00, -130119.78, 16342.12, 0.00, 0.00, 0.00
37, -8420.73, -14627.36, -187500.02, -187500.02, -13886.69, -10019.17, 29239.03, 13718.09, -7455.67, -10531.38, -22566.14, 18056.59, -187500.02, -15585.00, -130119.78, 16342.12, 0.00, 0.00, 0.00
38, -8420.73, -14627.36, -187500.02, -187500.02, -13886.69, -10019.17, 29239.03, 13718.09, -7455.25, -10519.89, -22571.57, 17931.60, -187500.02, -15659.72, -130371.38, 16031.05, 0.00, 0.00, 0.00
39, -8434.36, -14622.49, -187500.02, -187500.02, -13835.28, -9928.98, 29336.06, 13843.42, -7455.25, -10519.89, -22571.57, 17931.60, -187500.02, -15659.72, -130371.38, 16031.05, 0.00, 0.00, 0.00
40, -8434.36, -14622.49, -187500.02, -187500.02, -13835.28, -9928.98, 29336.06, 13843.42, -7459.94, -10529.57, -22562.99, 18031.62, -187500.02, -15585.33, -130196.96, 16226.56, 0.00, 0.00, 0.00
41, -8436.02, -14637.55, -187500.02, -187500.02, -13890.13, -10025.09, 29219.29, 13674.75, -7459.94, -10529.57, -22562.99, 18031.62, -187500.02, -15585.33, -130196.96, 16226.56, -0.83, -0.40, 0.34
42, -8436.02, -14637.55, -187500.02, -187500.02, -13890.13, -10025.09, 29219.29, 13674.75, -7468.86, -10528.39, -22592.72, 17887.43, -187500.02, -15684.35, -130479.58, 15885.67, 0.00, 0.00, 0.00
43, -8461.54, -14640.48, -187500.02, -187500.02, -13841.16, -9950.46, 29287.78, 13767.56, -7468.86, -10528.39, -22592.72, 17887.43, -187500.02, -15684.35, -130479.58, 15885.67, 0.00, 0.00, 0.00
44, -8461.54, -14640.48, -187500.02, -187500.02, -13841.16, -9950.46, 29287.78, 13767.56, -7479.30, -10539.63, -22560.55, 18040.83, -187500.02, -15565.80, -130240.75, 16159.64, 0.00, 0.00, 0.00
45, -8457.18, -14652.91, -187500.02, -187500.02, -13896.86, -10006.03, 29225.24, 13674.26, -7479.30, -10539.63, -22560.55, 18040.83, -187500.02, -15565.80, -130240.75, 16159.64, 0.00, 0.00, 0.00
46, -8457.18, -14652.91, -187500.02, -187500.02, -13896.86, -10006.03, 29225.24, 13674.26, -7478.60, -10531.20, -22614.24, 17880.08, -187500.02, -15684.35, -130546.56, 15808.00, 0.00, 0.00, 0.00
47, -8472.74, -14649.18, -187500.02, -187500.02, -13842.28, -9956.23, 29258.21, 13719.84, -7478.60, -10531.20, -22614.24, 17880.08, -187500.02, -15684.35, -130546.56, 15808.00, 0.00, 0.00, 0.00
48, -8472.74, -14649.18, -187500.02, -187500.02, -13842.28, -9956.23, 29258.21, 13719.84, -7484.79, -10531.99, -22556.06, 18069.96, -187500.02, -15542.24, -130272.98, 16132.19, 0.00, 0.00, 0.00
49, -8461.86, -14661.56, -187500.02, -187500.02, -13886.13, -9986.45, 29238.58, 13697.08, -7484.79, -10531.99, -22556.06, 18069.96, -187500.02, -15542.24, -130272.98, 16132.19, 0.00, 0.00, 0.00
50, -8461.86, -14661.56, -187500.02, -187500.02, -13886.13, -9986.45, 29238.58, 13697.08, -7474.51, -10532.92, -22614.38, 17920.06, -187500.02, -15668.10, -130560.65, 15801.81, 0.00, 0.00, 0.00
51, -8485.59, -14659.99, -187500.02, -187500.02, -13848.22, -9959.56, 29257.49, 13716.80, -7474.51, -10532.92, -22614.38, 17920.06, -187500.02, -15668.10, -130560.65, 15801.81, -0.83, -0.40, 0.33
52, -8485.59, -14659.99, -187500.02, -187500.02, -13848.22, -9959.56, 29257.49, 13716.80, -7490.92, -10535.90, -22539.74, 18147.89, -187500.02, -15504.89, -130238.36, 16172.76, 0.00, 0.00, 0.00
53, -8471.65, -14664.33, -187500.02, -187500.02, -13891.92, -9963.56, 29295.02, 13774.13, -7490.92, -10535.90, -22539.74, 18147.89, -187500.02, -15504.89, -130238.36, 16172.76, 0.00, 0.00, 0.00
54, -8471.65, -14664.33, -187500.02, -187500.02, -13891.92, -9963.56, 29295.02, 13774.13, -7478.89, -10538.60, -22627.10, 17978.76, -187500.02, -15657.98, -130517.66, 15850.58, 0.00, 0.00, 0.00
55, -8488.25, -14659.46, -187500.02, -187500.02, -13863.02, -9987.12, 29254.59, 13707.68, -7478.89, -10538.60, -22627.10, 17978.76, -187500.02, -15657.98, -130517.66, 15850.58, 0.00, 0.00, 0.00
56, -8488.25, -14659.46, -187500.02, -187500.02, -13863.02, -9987.12, 29254.59, 13707.68, -7496.04, -10536.92, -22532.88, 18191.55, -187500.02, -15500.82, -130220.07, 16183.60, 0.00, 0.00, 0.00
57, -8473.97, -14677.54, -187500.02, -187500.02, -13880.03, -9955.89, 29327.79, 13815.48, -7496.04, -10536.92, -22532.88, 18191.55, -187500.02, -15500.82, -130220.07, 16183.60, 0.00, 0.00, 0.00
58, -8473.97, -14677.54, -187500.02, -187500.02, -13880.03, -9955.89, 29327.79, 13815.48, -7469.06, -10539.36, -22632.28, 17999.08, -187500.02, -15670.65, -130513.98, 15854.99, 0.00, 0.00, 0.00
59, -8480.54, -14669.70, -187500.02, -187500.02, -13855.73, -10053.46, 29193.34, 13638.27, -7469.06, -10539.36, -22632.28, 17999.08, -187500.02, -15670.65, -130513.98, 15854.99, 0.00, 0.00, 0.00
60, -8480.54, -14669.70, -187500.02, -187500.02, -13855.73, -10053.46, 29193.34, 13638.27, -7494.16, -10535.09, -22536.03, 18158.96, -187500.02, -15531.33, -130299.40, 16102.55, 0.00, 0.00, 0.00
61, -8483.72, -14684.29, -187500.02, -187500.02, -13871.98, -9997.11, 29292.79, 13782.93, -7494.16, -10535.09, -22536.03, 18158.96, -187500.02, -15531.33, -130299.40, 16102.55, -0.84, -0.40, 0.33
62, -8483.72, -14684.29, -187500.02, -187500.02, -13871.98, -9997.11, 29292.79, 13782.93, -7484.48, -10547.83, -22630.36, 18006.86, -187500.02, -15661.06, -130521.91, 15849.02, 0.00, 0.00, 0.00
63, -8500.01, -14682.48, -187500.02, -187500.02, -13868.88, -10082.67, 29171.60, 13598.20, -7484.48, -10547.83, -22630.36, 18006.86, -187500.02, -15661.06, -130521.91, 15849.02, 0.00, 0.00, 0.00
64, -8500.01, -14682.48, -187500.02, -187500.02, -13868.88, -10082.67, 29171.60, 13598.20, -7513.07, -10540.50, -22538.65, 18158.76, -187500.02, -15530.71, -130332.84, 16056.82, 0.00, 0.00, 0.00
65, -8500.70, -14701.84, -187500.02, -187500.02, -13862.44, -9979.96, 29318.09, 13799.85, -7513.07, -10540.50, -22538.65, 18158.76, -187500.02, -15530.71, -130332.84, 16056.82, 0.00, 0.00, 0.00
66, -8500.70, -14701.84, -187500.02, -187500.02, -13862.44, -9979.96, 29318.09, 13799.85, -7486.56, -10544.41, -22646.85, 18009.67, -187500.02, -15666.31, -130532.48, 15836.46, 0.00, 0.00, 0.00
67, -8506.49, -14697.55, -187500.02, -187500.02, -13866.08, -10126.44, 29103.78, 13507.32, -7486.56, -10544.41, -22646.85, 18009.67, -187500.02, -15666.31, -130532.48, 15836.46, 0.00, 0.00, 0.00
68, -8506.49, -14697.55, -187500.02, -187500.02, -13866.08, -10126.44, 29103.78, 13507.32, -7526.79, -10540.32, -22560.40, 18080.82, -187500.02, -15585.40, -130472.78, 15896.34, 0.00, 0.00, 0.00
69, -8531.08, -14726.67, -187500.02, -187500.02, -13851.40, -9984.43, 29264.04, 13717.44, -7526.79, -10540.32, -22560.40, 18080.82, -187500.02, -15585.40, -130472.78, 15896.34, 0.00, 0.00, 0.00
70, -8531.08, -14726.67, -187500.02, -187500.02, -13851.40, -9984.43, 29264.04, 13717.44, -7520.62, -10563.77, -22652.38, 17985.26, -187500.02, -15674.00, -130582.09, 15755.99, 0.00, 0.00, 0.00
71, -8530.14, -14724.99, -187500.02, -187500.02, -13879.20, -10126.44, 29047.05, 13398.04, -7520.62, -10563.77, -22652.38, 17985.26, -187500.02, -15674.00, -130582.09, 15755.99, -0.83, -0.40, 0.33
72, -8530.14, -14724.99, -187500.02, -187500.02, -13879.20, -10126.44, 29047.05, 13398.04, -7545.03, -10554.11, -22594.84, 17971.07, -187500.02, -15648.81, -130642.95, 15669.56, 0.00, 0.00, 0.00
73, -8556.34, -14746.96, -187500.02, -187500.02, -13851.22, -10007.23, 29169.92, 13559.51, -7545.03, -10554.11, -22594.84, 17971.07, -187500.02, -15648.81, -130642.95, 15669.56, 0.00, 0.00, 0.00
74, -8556.34, -14746.96, -187500.02, -187500.02, -13851.22, -10007.23, 29169.92, 13559.51, -7538.68, -10571.73, -22667.66, 17877.10, -187500.02, -15711.85, -130740.47, 15550.17, 0.00, 0.00, 0.00
75, -8568.34, -14755.97, -187500.02, -187500.02, -13881.28, -10128.22, 28975.06, 13260.53, -7538.68, -10571.73, -22667.66, 17877.10, -187500.02, -15711.85, -130740.47, 15550.17, 0.00, 0.00, 0.00
76, -8568.34, -14755.97, -187500.02, -187500.02, -13881.28, -10128.22, 28975.06, 13260.53, -7559.94, -10561.00, -22611.13, 17874.55, -187500.02, -15674.34, -130819.55, 15432.36, 0.00, 0.00, 0.00
77, -8574.96, -14761.78, -187500.02, -187500.02, -13854.86, -10011.79, 29099.49, 13436.50, -7559.94, -10561.00, -22611.13, 17874.55, -187500.02, -15674.34, -130819.55, 15432.36, 0.00, 0.00, 0.00
78, -8574.96, -14761.78, -187500.02, -187500.02, -13854.86, -10011.79, 29099.49, 13436.50, -7549.68, -10573.40, -22669.25, 17839.13, -187500.02, -15699.71, -130849.41, 15406.32, 0.00, 0.00, 0.00
79, -8574.53, -14764.65, -187500.02, -187500.02, -13894.98, -10159.67, 28888.98, 13136.70, -7549.68, -10573.40, -22669.25, 17839.13, -187500.02, -15699.71, -130849.41, 15406.32, 0.00, 0.00, 0.00
80, -8574.53, -14764.65, -187500.02, -187500.02, -13894.98, -10159.67, 28888.98, 13136.70, -7574.00, -10562.79, -22636.08, 17776.81, -187500.02, -15713.68, -131035.71, 15178.31, 0.00, 0.00, 0.00
81, -8596.28, -14770.73, -187500.02, -187500.02, -13855.80, -10037.41, 29015.40, 13311.74, -7574.00, -10562.79, -22636.08, 17776.81, -187500.02, -15713.68, -131035.71, 15178.31, -0.83, -0.40, 0.33
82, -8596.28, -14770.73, -187500.02, -187500.02, -13855.80, -10037.41, 29015.40, 13311.74, -7571.12, -10572.60, -22650.74, 17836.20, -187500.02, -15663.72, -130938.64, 15289.40, 0.00, 0.00, 0.00
83, -8572.01, -14763.82, -187500.02, -187500.02, -13900.86, -10153.10, 28854.92, 13074.65, -7571.12, -10572.60, -22650.74, 17836.20, -187500.02, -15663.72, -130938.64, 15289.40, 0.00, 0.00, 0.00
84, -8572.01, -14763.82, -187500.02, -187500.02, -13900.86, -10153.10, 28854.92, 13074.65, -7555.05, -10555.28, -22657.38, 17712.84, -187500.02, -15742.42, -131214.41, 14973.81, 0.00, 0.00, 0.00
85, -8584.59, -14749.07, -187500.02, -187500.02, -13843.62, -10080.90, 28916.52, 13178.34, -7555.05, -10555.28, -22657.38, 17712.84, -187500.02, -15742.42, -131214.41, 14973.81, 0.00, 0.00, 0.00
86, -8584.59, -14749.07, -187500.02, -187500.02, -13843.62, -10080.90, 28916.52, 13178.34, -7567.03, -10571.30, -22639.01, 17825.49, -187500.02, -15650.67, -131053.66, 15160.79, 0.00, 0.00, 0.00
87, -8576.57, -14756.84, -187500.02, -187500.02, -13898.43, -10150.49, 28818.46, 13021.43, -7567.03, -10571.30, -22639.01, 17825.49, -187500.02, -15650.67, -131053.66, 15160.79, 0.00, 0.00, 0.00
88, -8576.57, -14756.84, -187500.02, -187500.02, -13898.43, -10150.49, 28818.46, 13021.43, -7563.58, -10563.08, -22650.27, 17724.78, -187500.02, -15712.52, -131302.03, 14863.35, 0.00, 0.00, 0.00
89, -8575.11, -14744.95, -187500.02, -187500.02, -13851.15, -10046.30, 28924.07, 13159.59, -7563.58, -10563.08, -22650.27, 17724.78, -187500.02, -15712.52, -131302.03, 14863.35, 0.00, 0.00, 0.00
90, -8575.11, -14744.95, -187500.02, -187500.02, -13851.15, -10046.30, 28924.07, 13159.59, -7557.12, -10565.07, -22622.18, 17878.62, -187500.02, -15604.51, -131081.63, 15123.70, 0.00, 0.00, 0.00
91, -8546.48, -14736.97, -187500.02, -187500.02, -13903.99, -10133.32, 28830.46, 13027.47, -7557.12, -10565.07, -22622.18, 17878.62, -187500.02, -15604.51, -131081.63, 15123.70, -0.84, -0.40, 0.33
92, -8546.48, -14736.97, -187500.02, -187500.02, -13903.99, -10133.32, 28830.46, 13027.47, -7538.59, -10550.98, -22660.85, 17700.48, -187500.02, -15740.86, -131427.97, 14732.39, 0.00, 0.00, 0.00
93, -8561.88, -14723.32, -187500.02, -187500.02, -13853.45, -10095.12, 28854.16, 13063.45, -7538.59, -10550.98, -22660.85, 17700.48, -187500.02, -15740.86, -131427.97, 14732.39, 0.00, 0.00, 0.00
94, -8561.88, -14723.32, -187500.02, -187500.02, -13853.45, -10095.12, 28854.16, 13063.45, -7547.80, -10555.90, -22602.49, 17879.16, -187500.02, -15595.82, -131175.48, 15021.76, 0.00, 0.00, 0.00
95, -8545.88, -14728.77, -187500.02, -187500.02, -13901.73, -10129.56, 28823.71, 13010.41, -7547.80, -10555.90, -22602.49, 17879.16, -187500.02, -15595.82, -131175.48, 15021.76, 0.00, 0.00, 0.00
96, -8545.88, -14728.77, -187500.02, -187500.02, -13901.73, -10129.56, 28823.71, 13010.41, -7536.09, -10552.26, -22656.00, 17712.71, -187500.02, -15719.69, -131488.88, 14653.31, 0.00, 0.00, 0.00
97, -8548.04, -14718.02, -187500.02, -187500.02, -13855.91, -10098.94, 28838.85, 13015.93, -7536.09, -10552.26, -22656.00, 17712.71, -187500.02, -15719.69, -131488.88, 14653.31, 0.00, 0.00, 0.00
98, -8548.04, -14718.02, -187500.02, -187500.02, -13855.91, -10098.94, 28838.85, 13015.93, -7534.19, -10552.53, -22590.84, 17874.80, -187500.02, -15593.13, -131254.58, 14925.65, 0.00, 0.00, 0.00
99, -8522.70, -14717.10, -187500.02, -187500.02, -13898.25, -10145.72, 28801.96, 12974.02, -7534.19, -10552.53, -22590.84, 17874.80, -187500.02, -15593.13, -131254.58, 14925.65, 0.00, 0.00, 0.00
100, -8522.70, -14717.10, -187500.02, -187500.02, -13898.25, -10145.72, 28801.96, 12974.02, -7508.62, -10544.64, -22667.62, 17641.38, -187500.02, -15764.44, -131643.92, 14481.09, 0.00, 0.00, 0.00
101, -8528.40, -14700.32, -187500.02, -187500.02, -13861.70, -10189.96, 28711.96, 12847.04, -7508.62, -10544.64, -22667.62, 17641.38, -187500.02, -15764.44, -131643.92, 14481.09, -0.83, -0.40, 0.33
102, -8528.40, -14700.32, -187500.02, -187500.02, -13861.70, -10189.96, 28711.96, 12847.04, -7523.66, -10543.54, -22579.57, 17790.47, -187500.02, -15619.20, -131444.64, 14706.15, 0.00, 0.00, 0.00
103, -8517.58, -14708.18, -187500.02, -187500.02, -13890.31, -10163.07, 28751.61, 12893.22, -7523.66, -10543.54, -22579.57, 17790.47, -187500.02, -15619.20, -131444.64, 14706.15, 0.00, 0.00, 0.00
104, -8517.58, -14708.18, -187500.02, -187500.02, -13890.31, -10163.07, 28751.61, 12893.22, -7500.95, -10549.35, -22664.53, 17593.66, -187500.02, -15764.26, -131774.33, 14320.34, 0.00, 0.00, 0.00
105, -8510.25, -14690.71, -187500.02, -187500.02, -13868.72, -10227.69, 28641.12, 12723.44, -7500.95, -10549.35, -22664.53, 17593.66, -187500.02, -15764.26, -131774.33, 14320.34, 0.00, 0.00, 0.00
106, -8510.25, -14690.71, -187500.02, -187500.02, -13868.72, -10227.69, 28641.12, 12723.44, -7508.35, -10533.71, -22571.57, 17728.53, -187500.02, -15632.81, -131611.45, 14505.23, 0.00, 0.00, 0.00
107, -8496.46, -14693.61, -187500.02, -187500.02, -13880.54, -10212.15, 28671.99, 12774.42, -7508.35, -10533.71, -22571.57, 17728.53, -187500.02, -15632.81, -131611.45, 14505.23, 0.00, 0.00, 0.00
108, -8496.46, -14693.61, -187500.02, -187500.02, -13880.54, -10212.15, 28671.99, 12774.42, -7479.12, -10540.57, -22668.27, 17506.60, -187500.02, -15790.01, -131960.00, 14106.45, 0.00, 0.00, 0.00
109, -8493.15, -14681.30, -187500.02, -187500.02, -13869.61, -10325.66, 28495.41, 12516.62, -7479.12, -10540.57, -22668.27, 17506.60, -187500.02, -15790.01, -131960.00, 14106.45, 0.00, 0.00, 0.00
110, -8493.15, -14681.30, -187500.02, -187500.02, -13869.61, -10325.66, 28495.41, 12516.62, -7494.63, -10532.50, -22567.95, 17611.56, -187500.02, -15667.63, -131861.47, 14211.91, 0.00, 0.00, 0.00
111, -8485.50, -14686.68, -187500.02, -187500.02, -13874.08, -10260.68, 28574.22, 12629.90, -7494.63, -10532.50, -22567.95, 17611.56, -187500.02, -15667.63, -131861.47, 14211.91, -0.84, -0.40, 0.33
112, -8485.50, -14686.68, -187500.02, -187500.02, -13874.08, -10260.68, 28574.22, 12629.90, -7469.19, -10540.30, -22658.68, 17437.06, -187500.02, -15793.72, -132147.39, 13891.50, 0.00, 0.00, 0.00
113, -8488.19, -14669.78, -187500.02, -187500.02, -13876.54, -10380.46, 28383.07, 12353.32, -7469.19, -10540.30, -22658.68, 17437.06, -187500.02, -15793.72, -132147.39, 13891.50, 0.00, 0.00, 0.00
114, -8488.19, -14669.78, -187500.02, -187500.02, -13876.54, -10380.46, 28383.07, 12353.32, -7493.18, -10533.55, -22561.11, 17543.62, -187500.02, -15671.68, -132085.89, 13960.88, 0.00, 0.00, 0.00
115, -8485.77, -14677.52, -187500.02, -187500.02, -13872.54, -10248.57, 28534.59, 12555.40, -7493.18, -10533.55, -22561.11, 17543.62, -187500.02, -15671.68, -132085.89, 13960.88, 0.00, 0.00, 0.00
116, -8485.77, -14677.52, -187500.02, -187500.02, -13872.54, -10248.57, 28534.59, 12555.40, -7466.67, -10541.06, -22642.47, 17448.17, -187500.02, -15750.22, -132257.03, 13771.45, 0.00, 0.00, 0.00
117, -8477.37, -14666.57, -187500.02, -187500.02, -13892.59, -10358.33, 28354.91, 12283.11, -7466.67, -10541.06, -22642.47, 17448.17, -187500.02, -15750.22, -132257.03, 13771.45, 0.00, 0.00, 0.00
118, -8477.37, -14666.57, -187500.02, -187500.02, -13892.59, -10358.33, 28354.91, 12283.11, -7485.24, -10531.23, -22564.02, 17515.18, -187500.02, -15672.13, -132254.64, 13771.67, 0.00, 0.00, 0.00
119, -8482.04, -14673.56, -187500.02, -187500.02, -13872.70, -10214.95, 28516.62, 12502.09, -7485.24, -10531.23, -22564.02, 17515.18, -187500.02, -15672.13, -132254.64, 13771.67, 0.00, 0.00, 0.00
120, -8482.04, -14673.56, -187500.02, -187500.02, -13872.70, -10214.95, 28516.62, 12502.09, -7459.36, -10539.27, -22639.77, 17443.90, -187500.02, -15734.17, -132361.91, 13654.64, 0.00, 0.00, 0.00
121, -8461.21, -14660.20, -187500.02, -187500.02, -13900.24, -10371.05, 28283.94, 12179.80, -7459.36, -10539.27, -22639.77, 17443.90, -187500.02, -15734.17, -132361.91, 13654.64, -0.83, -0.40, 0.33
122, -8461.21, -14660.20, -187500.02, -187500.02, -13900.24, -10371.05, 28283.94, 12179.80, -7468.37, -10524.74, -22579.42, 17422.27, -187500.02, -15715.78, -132486.86, 13508.70, 0.00, 0.00, 0.00
123, -8470.42, -14666.12, -187500.02, -187500.02, -13858.89, -10238.37, 28414.23, 12367.22, -7468.37, -10524.74, -22579.42, 17422.27, -187500.02, -15715.78, -132486.86, 13508.70, 0.00, 0.00, 0.00
124, -8470.42, -14666.12, -187500.02, -187500.02, -13858.89, -10238.37, 28414.23, 12367.22, -7457.86, -10535.29, -22622.00, 17404.32, -187500.02, -15728.63, -132523.25, 13472.38, 0.00, 0.00, 0.00
125, -8460.02, -14662.21, -187500.02, -187500.02, -13897.96, -10349.66, 28236.09, 12100.74, -7457.86, -10535.29, -22622.00, 17404.32, -187500.02, -15728.63, -132523.25, 13472.38, 0.00, 0.00, 0.00
126, -8460.02, -14662.21, -187500.02, -187500.02, -13897.96, -10349.66, 28236.09, 12100.74, -7463.60, -10525.30, -22581.45, 17372.47, -187500.02, -15726.69, -132687.86, 13278.01, 0.00, 0.00, 0.00
127, -8475.98, -14667.37, -187500.02, -187500.02, -13857.66, -10217.21, 28373.73, 12289.82, -7463.60, -10525.30, -22581.45, 17372.47, -187500.02, -15726.69, -132687.86, 13278.01, 0.00, 0.00, 0.00
128, -8475.98, -14667.37, -187500.02, -187500.02, -13857.66, -10217.21, 28373.73, 12289.82, -7463.34, -10541.35, -22610.17, 17420.17, -187500.02, -15696.80, -132635.58, 13344.13, 0.00, 0.00, 0.00
129, -8457.54, -14667.24, -187500.02, -187500.02, -13907.59, -10332.54, 28199.68, 12038.25, -7463.34, -10541.35, -22610.17, 17420.17, -187500.02, -15696.80, -132635.58, 13344.13, 0.00, 0.00, 0.00
130, -8457.54, -14667.24, -187500.02, -187500.02, -13907.59, -10332.54, 28199.68, 12038.25, -7464.19, -10528.92, -22598.26, 17332.32, -187500.02, -15745.69, -132887.75, 13056.39, 0.00, 0.00, 0.00
131, -8475.67, -14667.15, -187500.02, -187500.02, -13857.66, -10219.22, 28308.60, 12198.08, -7464.19, -10528.92, -22598.26, 17332.32, -187500.02, -15745.69, -132887.75, 13056.39, -0.83, -0.40, 0.33
132, -8475.67, -14667.15, -187500.02, -187500.02, -13857.66, -10219.22, 28308.60, 12198.08, -7460.72, -10539.38, -22595.31, 17425.71, -187500.02, -15680.11, -132784.69, 13191.42, 0.00, 0.00, 0.00
133, -8460.07, -14664.80, -187500.02, -187500.02, -13907.28, -10306.68, 28182.40, 12005.72, -7460.72, -10539.38, -22595.31, 17425.71, -187500.02, -15680.11, -132784.69, 13191.42, 0.00, 0.00, 0.00
134, -8460.07, -14664.80, -187500.02, -187500.02, -13907.28, -10306.68, 28182.40, 12005.72, -7456.92, -10532.16, -22602.66, 17324.55, -187500.02, -15747.63, -133071.03, 12865.64, 0.00, 0.00, 0.00
135, -8464.25, -14654.54, -187500.02, -187500.02, -13856.56, -10220.04, 28259.64, 12117.35, -7456.92, -10532.16, -22602.66, 17324.55, -187500.02, -15747.63, -133071.03, 12865.64, 0.00, 0.00, 0.00
136, -8464.25, -14654.54, -187500.02, -187500.02, -13856.56, -10220.04, 28259.64, 12117.35, -7452.83, -10531.18, -22583.26, 17445.22, -187500.02, -15665.76, -132934.41, 13048.25, 0.00, 0.00, 0.00
137, -8451.82, -14655.97, -187500.02, -187500.02, -13908.19, -10290.88, 28158.55, 11969.31, -7452.83, -10531.18, -22583.26, 17445.22, -187500.02, -15665.76, -132934.41, 13048.25, 0.00, 0.00, 0.00
138, -8451.82, -14655.97, -187500.02, -187500.02, -13908.19, -10290.88, 28158.55, 11969.31, -7445.25, -10524.34, -22609.41, 17320.03, -187500.02, -15758.87, -133263.22, 12680.08, 0.00, 0.00, 0.00
139, -8460.13, -14641.73, -187500.02, -187500.02, -13856.47, -10221.03, 28206.29, 12040.46, -7445.25, -10524.34, -22609.41, 17320.03, -187500.02, -15758.87, -133263.22, 12680.08, 0.00, 0.00, 0.00
140, -8460.13, -14641.73, -187500.02, -187500.02, -13856.47, -10221.03, 28206.29, 12040.46, -7447.49, -10526.60, -22561.25, 17491.11, -187500.02, -15637.59, -133078.08, 12920.27, 0.00, 0.00, 0.00
141, -8436.17, -14644.08, -187500.02, -187500.02, -13904.51, -10272.93, 28131.53, 11946.76, -7447.49, -10526.60, -22561.25, 17491.11, -187500.02, -15637.59, -133078.08, 12920.27, -0.83, -0.40, 0.33
142, -8436.17, -14644.08, -187500.02, -187500.02, -13904.51, -10272.93, 28131.53, 11946.76, -7439.91, -10520.32, -22608.97, 17337.55, -187500.02, -15758.34, -133444.56, 12518.16, 0.00, 0.00, 0.00
143, -8457.52, -14641.76, -187500.02, -187500.02, -13858.55, -10207.21, 28173.75, 11995.76, -7439.91, -10520.32, -22608.97, 17337.55, -187500.02, -15758.34, -133444.56, 12518.16, 0.00, 0.00, 0.00
144, -8457.52, -14641.76, -187500.02, -187500.02, -13858.55, -10207.21, 28173.75, 11995.76, -7453.26, -10526.51, -22543.43, 17562.48, -187500.02, -15597.65, -133190.89, 12829.68, 0.00, 0.00, 0.00
145, -8442.48, -14646.72, -187500.02, -187500.02, -13909.69, -10216.96, 28174.60, 11998.44, -7453.26, -10526.51, -22543.43, 17562.48, -187500.02, -15597.65, -133190.89, 12829.68, 0.00, 0.00, 0.00
146, -8442.48, -14646.72, -187500.02, -187500.02, -13909.69, -10216.96, 28174.60, 11998.44, -7433.65, -10520.92, -22620.61, 17392.12, -187500.02, -15749.71, -133557.72, 12432.26, 0.00, 0.00, 0.00
147, -8451.22, -14637.53, -187500.02, -187500.02, -13879.36, -10242.24, 28112.08, 11929.37, -7433.65, -10520.92, -22620.61, 17392.12, -187500.02, -15749.71, -133557.72, 12432.26, 0.00, 0.00, 0.00
148, -8451.22, -14637.53, -187500.02, -187500.02, -13879.36, -10242.24, 28112.08, 11929.37, -7453.28, -10523.58, -22539.23, 17587.69, -187500.02, -15606.26, -133346.70, 12698.61, 0.00, 0.00, 0.00
149, -8445.52, -14648.89, -187500.02, -187500.02, -13909.62, -10200.46, 28171.69, 12012.14, -7453.28, -10523.58, -22539.23, 17587.69, -187500.02, -15606.26, -133346.70, 12698.61, 0.00, 0.00, 0.00
150, -8445.52, -14648.89, -187500.02, -187500.02, -13909.62, -10200.46, 28171.69, 12012.14, -7432.54, -10529.50, -22621.91, 17444.82, -187500.02, -15743.14, -133662.31, 12352.36, 0.00, 0.00, 0.00
151, -8438.90, -14632.55, -187500.02, -187500.02, -13882.11, -10253.06, 28079.13, 11893.21, -7432.54, -10529.50, -22621.91, 17444.82, -187500.02, -15743.14, -133662.31, 12352.36, -0.83, -0.41, 0.33
152, -8438.90, -14632.55, -187500.02, -187500.02, -13882.11, -10253.06, 28079.13, 11893.21, -7448.20, -10518.46, -22524.95, 17631.97, -187500.02, -15598.81, -133475.45, 12594.40, 0.00, 0.00, 0.00
153, -8436.06, -14642.11, -187500.02, -187500.02, -13886.49, -10174.47, 28190.13, 12040.21, -7448.20, -10518.46, -22524.95, 17631.97, -187500.02, -15598.81, -133475.45, 12594.40, 0.00, 0.00, 0.00
154, -8436.06, -14642.11, -187500.02, -187500.02, -13886.49, -10174.47, 28190.13, 12040.21, -7429.27, -10522.69, -22613.79, 17504.88, -187500.02, -15717.72, -133751.77, 12296.28, 0.00, 0.00, 0.00
155, -8440.78, -14638.80, -187500.02, -187500.02, -13872.07, -10248.52, 28081.05, 11884.42, -7429.27, -10522.69, -22613.79, 17504.88, -187500.02, -15717.72, -133751.77, 12296.28, 0.00, 0.00, 0.00
156, -8440.78, -14638.80, -187500.02, -187500.02, -13872.07, -10248.52, 28081.05, 11884.42, -7449.72, -10515.96, -22532.59, 17676.07, -187500.02, -15588.29, -133595.52, 12502.89, 0.00, 0.00, 0.00
157, -8442.92, -14652.24, -187500.02, -187500.02, -13888.08, -10176.66, 28186.38, 12049.74, -7449.72, -10515.96, -22532.59, 17676.07, -187500.02, -15588.29, -133595.52, 12502.89, 0.00, 0.00, 0.00
158, -8442.92, -14652.24, -187500.02, -187500.02, -13888.08, -10176.66, 28186.38, 12049.74, -7430.01, -10526.13, -22627.70, 17549.67, -187500.02, -15716.49, -133854.06, 12240.22, 0.00, 0.00, 0.00
159, -8444.27, -14642.60, -187500.02, -187500.02, -13885.98, -10269.80, 28048.00, 11856.10, -7430.01, -10526.13, -22627.70, 17549.67, -187500.02, -15716.49, -133854.06, 12240.22, 0.00, 0.00, 0.00
160, -8444.27, -14642.60, -187500.02, -187500.02, -13885.98, -10269.80, 28048.00, 11856.10, -7447.96, -10515.78, -22527.85, 17720.02, -187500.02, -15584.49, -133716.56, 12418.92, 0.00, 0.00, 0.00
161, -8439.73, -14648.66, -187500.02, -187500.02, -13879.81, -10164.95, 28202.02, 12080.02, -7447.96, -10515.78, -22527.85, 17720.02, -187500.02, -15584.49, -133716.56, 12418.92, -0.83, -0.40, 0.32
162, -8439.73, -14648.66, -187500.02, -187500.02, -13879.81, -10164.95, 28202.02, 12080.02, -7421.09, -10524.56, -22618.15, 17632.33, -187500.02, -15695.22, -133901.08, 12242.27, 0.00, 0.00, 0.00
163, -8426.58, -14635.32, -187500.02, -187500.02, -13890.51, -10296.64, 28024.10, 11838.69, -7421.09, -10524.56, -22618.15, 17632.33, -187500.02, -15695.22, -133901.08, 12242.27, 0.00, 0.00, 0.00
164, -8426.58, -14635.32, -187500.02, -187500.02, -13890.51, -10296.64, 28024.10, 11838.69, -7441.01, -10511.91, -22522.53, 17752.34, -187500.02, -15601.70, -133844.23, 12329.65, 0.00, 0.00, 0.00
165, -8439.93, -14647.83, -187500.02, -187500.02, -13875.85, -10149.37, 28219.97, 12111.09, -7441.01, -10511.91, -22522.53, 17752.34, -187500.02, -15601.70, -133844.23, 12329.65, 0.00, 0.00, 0.00
166, -8439.93, -14647.83, -187500.02, -187500.02, -13875.85, -10149.37, 28219.97, 12111.09, -7422.12, -10522.73, -22602.66, 17721.31, -187500.02, -15663.10, -133926.84, 12263.40, 0.00, 0.00, 0.00
167, -8432.80, -14639.10, -187500.02, -187500.02, -13901.00, -10282.05, 28044.80, 11866.92, -7422.12, -10522.73, -22602.66, 17721.31, -187500.02, -15663.10, -133926.84, 12263.40, 0.00, 0.00, 0.00
168, -8432.80, -14639.10, -187500.02, -187500.02, -13901.00, -10282.05, 28044.80, 11866.92, -7444.47, -10514.42, -22532.86, 17793.60, -187500.02, -15604.85, -133937.95, 12271.42, 0.00, 0.00, 0.00
169, -8438.63, -14643.21, -187500.02, -187500.02, -13875.27, -10143.96, 28225.76, 12127.68, -7444.47, -10514.42, -22532.86, 17793.60, -187500.02, -15604.85, -133937.95, 12271.42, 0.00, 0.00, 0.00
170, -8438.63, -14643.21, -187500.02, -187500.02, -13875.27, -10143.96, 28225.76, 12127.68, -7418.23, -10520.94, -22600.52, 17780.30, -187500.02, -15656.99, -133980.84, 12264.78, 0.00, 0.00, 0.00
171, -8424.98, -14633.66, -187500.02, -187500.02, -13905.33, -10300.24, 28023.99, 11862.90, -7418.23, -10520.94, -22600.52, 17780.30, -187500.02, -15656.99, -133980.84, 12264.78, -0.83, -0.40, 0.32
172, -8424.98, -14633.66, -187500.02, -187500.02, -13905.33, -10300.24, 28023.99, 11862.90, -7440.45, -10511.02, -22538.07, 17811.03, -187500.02, -15629.84, -134064.44, 12186.98, 0.00, 0.00, 0.00
173, -8437.51, -14640.26, -187500.02, -187500.02, -13862.82, -10142.95, 28207.05, 12127.72, -7440.45, -10511.02, -22538.07, 17811.03, -187500.02, -15629.84, -134064.44, 12186.98, 0.00, 0.00, 0.00
174, -8437.51, -14640.26, -187500.02, -187500.02, -13862.82, -10142.95, 28207.05, 12127.72, -7421.58, -10521.14, -22577.72, 17862.15, -187500.02, -15622.33, -134004.06, 12296.57, 0.00, 0.00, 0.00
175, -8419.66, -14635.45, -187500.02, -187500.02, -13904.17, -10257.01, 28042.10, 11905.23, -7421.58, -10521.14, -22577.72, 17862.15, -187500.02, -15622.33, -134004.06, 12296.57, 0.00, 0.00, 0.00
176, -8419.66, -14635.45, -187500.02, -187500.02, -13904.17, -10257.01, 28042.10, 11905.23, -7428.71, -10510.15, -22543.95, 17849.70, -187500.02, -15630.55, -134148.81, 12156.44, 0.00, 0.00, 0.00
177, -8436.22, -14640.95, -187500.02, -187500.02, -13854.77, -10092.26, 28223.32, 12159.71, -7428.71, -10510.15, -22543.95, 17849.70, -187500.02, -15630.55, -134148.81, 12156.44, 0.00, 0.00, 0.00
178, -8436.22, -14640.95, -187500.02, -187500.02, -13854.77, -10092.26, 28223.32, 12159.71, -7429.41, -10524.12, -22551.30, 17981.82, -187500.02, -15560.41, -133969.58, 12395.11, 0.00, 0.00, 0.00
179, -8428.69, -14647.25, -187500.02, -187500.02, -13905.58, -10166.74, 28125.27, 12015.58, -7429.41, -10524.12, -22551.30, 17981.82, -187500.02, -15560.41, -133969.58, 12395.11, 0.00, 0.00, 0.00
180, -8428.69, -14647.25, -187500.02, -187500.02, -13905.58, -10166.74, 28125.27, 12015.58, -7437.83, -10515.13, -22557.11, 17926.77, -187500.02, -15622.89, -134162.09, 12200.54, 0.00, 0.00, 0.00
181, -8441.63, -14642.11, -187500.02, -187500.02, -13858.51, -10059.85, 28261.39, 12221.55, -7437.83, -10515.13, -22557.11, 17926.77, -187500.02, -15622.89, -134162.09, 12200.54, -0.83, -0.40, 0.32
182, -8441.63, -14642.11, -187500.02, -187500.02, -13858.51, -10059.85, 28261.39, 12221.55, -7430.79, -10522.11, -22553.56, 18062.04, -187500.02, -15556.95, -133970.36, 12464.43, 0.00, 0.00, 0.00
183, -8420.35, -14639.79, -187500.02, -187500.02, -13908.33, -10189.18, 28146.25, 12082.37, -7430.79, -10522.11, -22553.56, 18062.04, -187500.02, -15556.95, -133970.36, 12464.43, 0.00, 0.00, 0.00
184, -8420.35, -14639.79, -187500.02, -187500.02, -13908.33, -10189.18, 28146.25, 12082.37, -7426.14, -10510.77, -22576.11, 17937.47, -187500.02, -15662.47, -134255.61, 12169.88, 0.00, 0.00, 0.00
185, -8443.13, -14642.65, -187500.02, -187500.02, -13858.53, -10149.01, 28221.58, 12210.89, -7426.14, -10510.77, -22576.11, 17937.47, -187500.02, -15662.47, -134255.61, 12169.88, 0.00, 0.00, 0.00
186, -8443.13, -14642.65, -187500.02, -187500.02, -13858.53, -10149.01, 28221.58, 12210.89, -7438.97, -10522.91, -22541.20, 18110.97, -187500.02, -15546.87, -134013.17, 12483.05, 0.00, 0.00, 0.00
187, -8429.71, -14653.29, -187500.02, -187500.02, -13909.89, -10235.91, 28165.50, 12146.18, -7438.97, -10522.91, -22541.20, 18110.97, -187500.02, -15546.87, -134013.17, 12483.05, 0.00, 0.00, 0.00
188, -8429.71, -14653.29, -187500.02, -187500.02, -13909.89, -10235.91, 28165.50, 12146.18, -7427.80, -10519.29, -22591.91, 17958.31, -187500.02, -15680.15, -134325.59, 12154.61, 0.00, 0.00, 0.00
189, -8439.95, -14649.22, -187500.02, -187500.02, -13855.60, -10227.26, 28189.73, 12196.21, -7427.80, -10519.29, -22591.91, 17958.31, -187500.02, -15680.15, -134325.59, 12154.61, 0.00, 0.00, 0.00
190, -8439.95, -14649.22, -187500.02, -187500.02, -13855.60, -10227.26, 28189.73, 12196.21, -7446.04, -10525.46, -22529.73, 18154.85, -187500.02, -15534.53, -134053.58, 12498.20, -0.84, -0.40, 0.32
191, -8429.67, -14663.75, -187500.02, -187500.02, -13902.38, -10265.58, 28180.94, 12185.75, -7446.04, -10525.46, -22529.73, 18154.85, -187500.02, -15534.53, -134053.58, 12498.20, 0.00, 0.00, 0.00
192, -8429.67, -14663.75, -187500.02, -187500.02, -13902.38, -10265.58, 28180.94, 12185.75, -7436.36, -10521.77, -22609.26, 17968.61, -187500.02, -15692.02, -134396.30, 12134.00, 0.00, 0.00, 0.00
193, -8437.49, -14651.12, -187500.02, -187500.02, -13861.28, -10276.95, 28149.56, 12154.41, -7436.36, -10521.77, -22609.26, 17968.61, -187500.02, -15692.02, -134396.30, 12134.00, 0.00, 0.00, 0.00
194, -8437.49, -14651.12, -187500.02, -187500.02, -13861.28, -10276.95, 28149.56, 12154.41, -7454.95, -10519.31, -22530.38, 18159.03, -187500.02, -15544.34, -134150.11, 12447.06, 0.00, 0.00, 0.00
195, -8426.43, -14662.16, -187500.02, -187500.02, -13896.62, -10240.38, 28192.23, 12205.26, -7454.95, -10519.31, -22530.38, 18159.03, -187500.02, -15544.34, -134150.11, 12447.06, 0.00, 0.00, 0.00
196, -8426.43, -14662.16, -187500.02, -187500.02, -13896.62, -10240.38, 28192.23, 12205.26, -7436.47, -10522.08, -22608.99, 17987.95, -187500.02, -15690.46, -134472.27, 12095.83, 0.00, 0.00, 0.00
197, -8427.88, -14652.78, -187500.02, -187500.02, -13867.87, -10251.85, 28129.65, 12112.05, -7436.47, -10522.08, -22608.99, 17987.95, -187500.02, -15690.46, -134472.27, 12095.83, 0.00, 0.00, 0.00
198, -8427.88, -14652.78, -187500.02, -187500.02, -13867.87, -10251.85, 28129.65, 12112.05, -7449.68, -10516.85, -22526.87, 18152.32, -187500.02, -15563.18, -134272.16, 12349.41, 0.00, 0.00, 0.00
199, -8418.18, -14657.78, -187500.02, -187500.02, -13888.75, -10202.05, 28183.31, 12183.62, -7449.68, -10516.85, -22526.87, 18152.32, -187500.02, -15563.18, -134272.16, 12349.41, 0.00, 0.00, 0.00
200, -8418.18, -14657.78, -187500.02, -187500.02, -13888.75, -10202.05, 28183.31, 12183.62, -7431.15, -10514.75, -22614.78, 17968.90, -187500.02, -15714.91, -134607.75, 11989.61, -0.83, -0.40, 0.33
201, -8424.10, -14650.65, -187500.02, -187500.02, -13870.35, -10249.82, 28068.78, 12016.61, -7431.15, -10514.75, -22614.78, 17968.90, -187500.02, -15714.91, -134607.75, 11989.61, 0.00, 0.00, 0.00
202, -8424.10, -14650.65, -187500.02, -187500.02, -13870.35, -10249.82, 28068.78, 12016.61, -7453.81, -10508.92, -22517.13, 18140.99, -187500.02, -15564.66, -134431.95, 12217.84, 0.00, 0.00, 0.00
203, -8410.76, -14660.26, -187500.02, -187500.02, -13879.78, -10152.85, 28174.57, 12163.08, -7453.81, -10508.92, -22517.13, 18140.99, -187500.02, -15564.66, -134431.95, 12217.84, 0.00, 0.00, 0.00
204, -8410.76, -14660.26, -187500.02, -187500.02, -13879.78, -10152.85, 28174.57, 12163.08, -7424.91, -10509.05, -22606.87, 17989.71, -187500.02, -15694.52, -134711.45, 11930.09, 0.00, 0.00, 0.00
205, -8417.02, -14644.91, -187500.02, -187500.02, -13868.81, -10224.04, 28045.22, 11970.79, -7424.91, -10509.05, -22606.87, 17989.71, -187500.02, -15694.52, -134711.45, 11930.09, 0.00, 0.00, 0.00
206, -8417.02, -14644.91, -187500.02, -187500.02, -13868.81, -10224.04, 28045.22, 11970.79, -7451.71, -10504.07, -22504.63, 18155.79, -187500.02, -15551.99, -134554.64, 12137.09, 0.00, 0.00, 0.00
207, -8415.99, -14655.12, -187500.02, -187500.02, -13876.30, -10119.60, 28176.27, 12162.61, -7451.71, -10504.07, -22504.63, 18155.79, -187500.02, -15551.99, -134554.64, 12137.09, 0.00, 0.00, 0.00
208, -8415.99, -14655.12, -187500.02, -187500.02, -13876.30, -10119.60, 28176.27, 12162.61, -7424.94, -10513.81, -22601.97, 18026.68, -187500.02, -15676.66, -134777.08, 11925.50, 0.00, 0.00, 0.00
209, -8411.30, -14645.40, -187500.02, -187500.02, -13883.85, -10232.61, 28011.29, 11934.98, -7424.94, -10513.81, -22601.97, 18026.68, -187500.02, -15676.66, -134777.08, 11925.50, 0.00, 0.00, 0.00
210, -8411.30, -14645.40, -187500.02, -187500.02, -13883.85, -10232.61, 28011.29, 11934.98, -7446.77, -10502.84, -22507.49, 18153.82, -187500.02, -15562.94, -134679.94, 12062.88, -0.83, -0.40, 0.33
211, -8425.22, -14658.90, -187500.02, -187500.02, -13876.01, -10100.91, 28186.98, 12184.05, -7446.77, -10502.84, -22507.49, 18153.82, -187500.02, -15562.94, -134679.94, 12062.88, 0.00, 0.00, 0.00
212, -8425.22, -14658.90, -187500.02, -187500.02, -13876.01, -10100.91, 28186.98, 12184.05, -7433.92, -10518.28, -22597.86, 18083.19, -187500.02, -15643.94, -134796.38, 11963.39, 0.00, 0.00, 0.00
213, -8418.18, -14649.89, -187500.02, -187500.02, -13900.77, -10257.93, 27978.39, 11905.19, -7433.92, -10518.28, -22597.86, 18083.19, -187500.02, -15643.94, -134796.38, 11963.39, 0.00, 0.00, 0.00
214, -8418.18, -14649.89, -187500.02, -187500.02, -13900.77, -10257.93, 27978.39, 11905.19, -7462.73, -10507.31, -22524.21, 18138.57, -187500.02, -15584.31, -134804.47, 11986.35, 0.00, 0.00, 0.00
215, -8437.81, -14667.88, -187500.02, -187500.02, -13870.98, -10096.62, 28183.83, 12181.10, -7462.73, -10507.31, -22524.21, 18138.57, -187500.02, -15584.31, -134804.47, 11986.35, 0.00, 0.00, 0.00
216, -8437.81, -14667.88, -187500.02, -187500.02, -13870.98, -10096.62, 28183.83, 12181.10, -7437.19, -10523.18, -22599.04, 18115.26, -187500.02, -15631.65, -134838.75, 11983.22, 0.00, 0.00, 0.00
217, -8418.76, -14653.83, -187500.02, -187500.02, -13907.90, -10266.07, 27972.87, 11891.17, -7437.19, -10523.18, -22599.04, 18115.26, -187500.02, -15631.65, -134838.75, 11983.22, 0.00, 0.00, 0.00
218, -8418.76, -14653.83, -187500.02, -187500.02, -13907.90, -10266.07, 27972.87, 11891.17, -7449.79, -10507.82, -22541.38, 18105.45, -187500.02, -15621.88, -134940.20, 11896.60, 0.00, 0.00, 0.00
219, -8433.11, -14660.40, -187500.02, -187500.02, -13868.99, -10137.32, 28140.73, 12125.02, -7449.79, -10507.82, -22541.38, 18105.45, -187500.02, -15621.88, -134940.20, 11896.60, 0.00, 0.00, 0.00
220, -8433.11, -14660.40, -187500.02, -187500.02, -13868.99, -10137.32, 28140.73, 12125.02, -7438.30, -10521.23, -22592.58, 18117.07, -187500.02, -15626.48, -134921.56, 11957.18, -0.84, -0.39, 0.33
221, -8415.54, -14654.23, -187500.02, -187500.02, -13906.18, -10287.21, 27953.45, 11856.46, -7438.30, -10521.23, -22592.58, 18117.07, -187500.02, -15626.48, -134921.56, 11957.18, 0.00, 0.00, 0.00
222, -8415.54, -14654.23, -187500.02, -187500.02, -13906.18, -10287.21, 27953.45, 11856.46, -7446.17, -10509.01, -22557.83, 18063.09, -187500.02, -15646.73, -135095.13, 11788.91, 0.00, 0.00, 0.00
223, -8433.22, -14660.89, -187500.02, -187500.02, -13861.12, -10161.13, 28099.43, 12063.39, -7446.17, -10509.01, -22557.83, 18063.09, -187500.02, -15646.73, -135095.13, 11788.91, 0.00, 0.00, 0.00
224, -8433.22, -14660.89, -187500.02, -187500.02, -13861.12, -10161.13, 28099.43, 12063.39, -7438.03, -10523.25, -22582.68, 18115.33, -187500.02, -15616.58, -135012.64, 11923.14, 0.00, 0.00, 0.00
225, -8415.95, -14658.63, -187500.02, -187500.02, -13907.90, -10289.65, 27926.13, 11823.20, -7438.03, -10523.25, -22582.68, 18115.33, -187500.02, -15616.58, -135012.64, 11923.14, 0.00, 0.00, 0.00
226, -8415.95, -14658.63, -187500.02, -187500.02, -13907.90, -10289.65, 27926.13, 11823.20, -7444.92, -10509.95, -22563.30, 18042.86, -187500.02, -15650.42, -135223.59, 11705.72, 0.00, 0.00, 0.00
227, -8438.01, -14658.34, -187500.02, -187500.02, -13854.01, -10158.71, 28065.10, 12020.21, -7444.92, -10509.95, -22563.30, 18042.86, -187500.02, -15650.42, -135223.59, 11705.72, 0.00, 0.00, 0.00
228, -8438.01, -14658.34, -187500.02, -187500.02, -13854.01, -10158.71, 28065.10, 12020.21, -7444.83, -10520.50, -22563.71, 18154.11, -187500.02, -15580.37, -135063.83, 11930.62, 0.00, 0.00, 0.00
229, -8425.13, -14662.30, -187500.02, -187500.02, -13902.81, -10241.23, 27953.96, 11861.51, -7444.83, -10520.50, -22563.71, 18154.11, -187500.02, -15580.37, -135063.83, 11930.62, 0.00, 0.00, 0.00
230, -8425.13, -14662.30, -187500.02, -187500.02, -13902.81, -10241.23, 27953.96, 11861.51, -7446.06, -10510.68, -22572.62, 18061.44, -187500.02, -15649.98, -135303.28, 11678.07, -0.83, -0.40, 0.33
231, -8440.17, -14658.25, -187500.02, -187500.02, -13846.12, -10129.27, 28068.60, 12027.18, -7446.06, -10510.68, -22572.62, 18061.44, -187500.02, -15649.98, -135303.28, 11678.07, 0.00, 0.00, 0.00
232, -8440.17, -14658.25, -187500.02, -187500.02, -13846.12, -10129.27, 28068.60, 12027.18, -7452.74, -10517.93, -22545.18, 18223.35, -187500.02, -15540.76, -135072.70, 11980.56, 0.00, 0.00, 0.00
233, -8427.12, -14666.45, -187500.02, -187500.02, -13896.44, -10174.07, 28019.14, 11953.67, -7452.74, -10517.93, -22545.18, 18223.35, -187500.02, -15540.76, -135072.70, 11980.56, 0.00, 0.00, 0.00
234, -8427.12, -14666.45, -187500.02, -187500.02, -13896.44, -10174.07, 28019.14, 11953.67, -7444.47, -10513.97, -22575.87, 18111.93, -187500.02, -15635.27, -135327.73, 11712.76, 0.00, 0.00, 0.00
235, -8433.51, -14656.28, -187500.02, -187500.02, -13844.92, -10096.55, 28098.62, 12072.20, -7444.47, -10513.97, -22575.87, 18111.93, -187500.02, -15635.27, -135327.73, 11712.76, 0.00, 0.00, 0.00
236, -8433.51, -14656.28, -187500.02, -187500.02, -13844.92, -10096.55, 28098.62, 12072.20, -7435.51, -10511.38, -22535.83, 18272.37, -187500.02, -15528.14, -135091.77, 12029.66, 0.00, 0.00, 0.00
237, -8407.32, -14658.18, -187500.02, -187500.02, -13889.64, -10161.80, 28031.43, 12005.79, -7435.51, -10511.38, -22535.83, 18272.37, -187500.02, -15528.14, -135091.77, 12029.66, 0.00, 0.00, 0.00
238, -8407.32, -14658.18, -187500.02, -187500.02, -13889.64, -10161.80, 28031.43, 12005.79, -7433.85, -10511.49, -22591.02, 18096.84, -187500.02, -15664.86, -135424.81, 11687.10, 0.00, 0.00, 0.00
239, -8440.33, -14654.29, -187500.02, -187500.02, -13844.83, -10106.63, 28075.76, 12066.37, -7433.85, -10511.49, -22591.02, 18096.84, -187500.02, -15664.86, -135424.81, 11687.10, 0.00, 0.00, 0.00
240, -8440.33, -14654.29, -187500.02, -187500.02, -13844.83, -10106.63, 28075.76, 12066.37, -7456.99, -10514.26, -22513.39, 18325.72, -187500.02, -15494.00, -135107.58, 12085.10, -0.83, -0.40, 0.33
241, -8428.87, -14665.92, -187500.02, -187500.02, -13890.85, -10085.62, 28120.75, 12131.92, -7456.99, -10514.26, -22513.39, 18325.72, -187500.02, -15494.00, -135107.58, 12085.10, 0.00, 0.00, 0.00
242, -8428.87, -14665.92, -187500.02, -187500.02, -13890.85, -10085.62, 28120.75, 12131.92, -7430.19, -10511.89, -22592.58, 18156.93, -187500.02, -15645.59, -135408.39, 11777.33, 0.00, 0.00, 0.00
243, -8433.27, -14654.00, -187500.02, -187500.02, -13852.99, -10094.18, 28100.14, 12110.46, -7430.19, -10511.89, -22592.58, 18156.93, -187500.02, -15645.59, -135408.39, 11777.33, 0.00, 0.00, 0.00
244, -8433.27, -14654.00, -187500.02, -187500.02, -13852.99, -10094.18, 28100.14, 12110.46, -7449.99, -10511.58, -22498.19, 18377.51, -187500.02, -15480.28, -135107.64, 12159.97, 0.00, 0.00, 0.00
245, -8431.32, -14669.34, -187500.02, -187500.02, -13882.33, -10037.03, 28212.95, 12260.60, -7449.99, -10511.58, -22498.19, 18377.51, -187500.02, -15480.28, -135107.64, 12159.97, 0.00, 0.00, 0.00
246, -8431.32, -14669.34, -187500.02, -187500.02, -13882.33, -10037.03, 28212.95, 12260.60, -7428.71, -10512.67, -22592.61, 18229.81, -187500.02, -15620.00, -135357.78, 11906.73, 0.00, 0.00, 0.00
247, -8427.84, -14649.33, -187500.02, -187500.02, -13857.25, -10088.46, 28156.49, 12191.13, -7428.71, -10512.67, -22592.61, 18229.81, -187500.02, -15620.00, -135357.78, 11906.73, 0.00, 0.00, 0.00
248, -8427.84, -14649.33, -187500.02, -187500.02, -13857.25, -10088.46, 28156.49, 12191.13, -7438.08, -10500.78, -22498.73, 18418.04, -187500.02, -15475.92, -135098.36, 12240.17, 0.00, 0.00, 0.00
249, -8409.06, -14653.11, -187500.02, -187500.02, -13873.21, -10046.64, 28256.11, 12352.96, -7438.08, -10500.78, -22498.73, 18418.04, -187500.02, -15475.92, -135098.36, 12240.17, 0.00, 0.00, 0.00
250, -8409.06, -14653.11, -187500.02, -187500.02, -13873.21, -10046.64, 28256.11, 12352.96, -7413.94, -10502.41, -22598.17, 18237.21, -187500.02, -15634.98, -135374.91, 11972.40, -0.83, -0.40, 0.33
251, -8418.74, -14645.44, -187500.02, -187500.02, -13859.58, -10147.49, 28122.67, 12190.15, -7413.94, -10502.41, -22598.17, 18237.21, -187500.02, -15634.98, -135374.91, 11972.40, 0.00, 0.00, 0.00
252, -8418.74, -14645.44, -187500.02, -187500.02, -13859.58, -10147.49, 28122.67, 12190.15, -7448.36, -10501.36, -22492.92, 18401.88, -187500.02, -15491.59, -135171.20, 12247.88, 0.00, 0.00, 0.00
253, -8431.68, -14663.01, -187500.02, -187500.02, -13862.51, -10011.82, 28314.94, 12460.74, -7448.36, -10501.36, -22492.92, 18401.88, -187500.02, -15491.59, -135171.20, 12247.88, 0.00, 0.00, 0.00
254, -8431.68, -14663.01, -187500.02, -187500.02, -13862.51, -10011.82, 28314.94, 12460.74, -7432.65, -10510.59, -22584.54, 18318.04, -187500.02, -15585.71, -135304.17, 12131.54, 0.00, 0.00, 0.00
255, -8422.99, -14650.58, -187500.02, -187500.02, -13867.07, -10091.57, 28205.24, 12314.00, -7432.65, -10510.59, -22584.54, 18318.04, -187500.02, -15585.71, -135304.17, 12131.54, 0.00, 0.00, 0.00
0, -8422.99, -14650.58, -187500.02, -187500.02, -13867.07, -10091.57, 28205.24, 12314.00, -7451.78, -10499.55, -22493.92, 18467.32, -187500.02, -15469.42, -135128.27, 12364.11, 0.00, 0.00, 0.00
1, -8427.59, -14661.98, -187500.02, -187500.02, -13859.60, -9939.31, 28411.21, 12613.18, -7451.78, -10499.55, -22493.92, 18467.32, -187500.02, -15469.42, -135128.27, 12364.11, 0.00, 0.00, 0.00
2, -8427.59, -14661.98, -187500.02, -187500.02, -13859.60, -9939.31, 28411.21, 12613.18, -7432.33, -10509.61, -22580.20, 18402.53, -187500.02, -15555.07, -135205.19, 12314.13, 0.00, 0.00, 0.00
3, -8420.89, -14651.97, -187500.02, -187500.02, -13874.58, -10033.14, 28288.12, 12446.21, -7432.33, -10509.61, -22580.20, 18402.53, -187500.02, -15555.07, -135205.19, 12314.13, 0.00, 0.00, 0.00
4, -8420.89, -14651.97, -187500.02, -187500.02, -13874.58, -10033.14, 28288.12, 12446.21, -7452.56, -10501.27, -22495.44, 18522.15, -187500.02, -15464.95, -135077.22, 12485.73, -0.83, -0.40, 0.34
5, -8428.46, -14663.41, -187500.02, -187500.02, -13852.63, -9876.77, 28510.43, 12767.58, -7452.56, -10501.27, -22495.44, 18522.15, -187500.02, -15464.95, -135077.22, 12485.73, 0.00, 0.00, 0.00
6, -8428.46, -14663.41, -187500.02, -187500.02, -13852.63, -9876.77, 28510.43, 12767.58, -7426.93, -10509.12, -22573.70, 18487.02, -187500.02, -15535.62, -135097.22, 12509.76, 0.00, 0.00, 0.00
7, -8416.50, -14651.66, -187500.02, -187500.02, -13877.66, -9998.43, 28359.24, 12569.53, -7426.93, -10509.12, -22573.70, 18487.02, -187500.02, -15535.62, -135097.22, 12509.76, 0.00, 0.00, 0.00
8, -8416.50, -14651.66, -187500.02, -187500.02, -13877.66, -9998.43, 28359.24, 12569.53, -7444.34, -10494.84, -22499.60, 18555.93, -187500.02, -15475.90, -135051.00, 12597.06, 0.00, 0.00, 0.00
9, -8426.92, -14659.19, -187500.02, -187500.02, -13843.11, -9826.34, 28591.46, 12908.04, -7444.34, -10494.84, -22499.60, 18555.93, -187500.02, -15475.90, -135051.00, 12597.06, 0.00, 0.00, 0.00
10, -8426.92, -14659.19, -187500.02, -187500.02, -13843.11, -9826.34, 28591.46, 12908.04, -7428.94, -10507.85, -22548.91, 18596.38, -187500.02, -15482.11, -134949.61, 12757.53, 0.00, 0.00, 0.00
11, -8418.16, -14660.75, -187500.02, -187500.02, -13878.85, -9919.21, 28486.22, 12766.06, -7428.94, -10507.85, -22548.91, 18596.38, -187500.02, -15482.11, -134949.61, 12757.53, 0.00, 0.00, 0.00
12, -8418.16, -14660.75, -187500.02, -187500.02, -13878.85, -9919.21, 28486.22, 12766.06, -7441.16, -10500.36, -22498.79, 18633.15, -187500.02, -15458.82, -134941.67, 12794.61, 0.00, 0.00, 0.00
13, -8430.05, -14666.12, -187500.02, -187500.02, -13834.46, -9746.95, 28721.39, 13111.67, -7441.16, -10500.36, -22498.79, 18633.15, -187500.02, -15458.82, -134941.67, 12794.61, 0.00, 0.00, 0.00
14, -8430.05, -14666.12, -187500.02, -187500.02, -13834.46, -9746.95, 28721.39, 13111.67, -7430.17, -10509.43, -22535.23, 18717.93, -187500.02, -15442.51, -134753.33, 13054.20, -0.83, -0.40, 0.33
15, -8418.34, -14665.20, -187500.02, -187500.02, -13880.95, -9848.51, 28618.39, 12978.43, -7430.17, -10509.43, -22535.23, 18717.93, -187500.02, -15442.51, -134753.33, 13054.20, 0.00, 0.00, 0.00
16, -8418.34, -14665.20, -187500.02, -187500.02, -13880.95, -9848.51, 28618.39, 12978.43, -7440.14, -10494.57, -22508.68, 18701.08, -187500.02, -15462.31, -134810.27, 13016.60, 0.00, 0.00, 0.00
17, -8428.60, -14664.11, -187500.02, -187500.02, -13831.10, -9688.61, 28837.75, 13296.31, -7440.14, -10494.57, -22508.68, 18701.08, -187500.02, -15462.31, -134810.27, 13016.60, 0.00, 0.00, 0.00
18, -8428.60, -14664.11, -187500.02, -187500.02, -13831.10, -9688.61, 28837.75, 13296.31, -7427.69, -10506.57, -22527.85, 18803.09, -187500.02, -15427.87, -134574.19, 13333.46, 0.00, 0.00, 0.00
19, -8420.62, -14667.17, -187500.02, -187500.02, -13877.73, -9789.35, 28748.01, 13183.66, -7427.69, -10506.57, -22527.85, 18803.09, -187500.02, -15427.87, -134574.19, 13333.46, 0.00, 0.00, 0.00
20, -8420.62, -14667.17, -187500.02, -187500.02, -13877.73, -9789.35, 28748.01, 13183.66, -7435.89, -10500.71, -22517.26, 18740.24, -187500.02, -15480.06, -134682.88, 13229.84, 0.00, 0.00, 0.00
21, -8432.15, -14671.26, -187500.02, -187500.02, -13825.67, -9645.65, 28955.21, 13471.02, -7435.89, -10500.71, -22517.26, 18740.24, -187500.02, -15480.06, -134682.88, 13229.84, 0.00, 0.00, 0.00
22, -8432.15, -14671.26, -187500.02, -187500.02, -13825.67, -9645.65, 28955.21, 13471.02, -7436.13, -10515.36, -22508.96, 18904.59, -187500.02, -15388.93, -134353.02, 13635.10, 0.00, 0.00, 0.00
23, -8411.45, -14667.86, -187500.02, -187500.02, -13880.41, -9739.39, 28900.04, 13403.76, -7436.13, -10515.36, -22508.96, 18904.59, -187500.02, -15388.93, -134353.02, 13635.10, 0.00, 0.00, 0.00
24, -8411.45, -14667.86, -187500.02, -187500.02, -13880.41, -9739.39, 28900.04, 13403.76, -7424.74, -10498.66, -22543.19, 18751.08, -187500.02, -15516.09, -134575.77, 13412.21, -0.83, -0.40, 0.34
25, -8433.20, -14658.16, -187500.02, -187500.02, -13828.71, -9675.20, 29009.19, 13572.31, -7424.74, -10498.66, -22543.19, 18751.08, -187500.02, -15516.09, -134575.77, 13412.21, 0.00, 0.00, 0.00
26, -8433.20, -14658.16, -187500.02, -187500.02, -13828.71, -9675.20, 29009.19, 13572.31, -7440.92, -10508.40, -22492.80, 18940.89, -187500.02, -15383.86, -134216.41, 13848.31, 0.00, 0.00, 0.00
27, -8426.83, -14674.48, -187500.02, -187500.02, -13882.13, -9695.69, 29038.69, 13607.05, -7440.92, -10508.40, -22492.80, 18940.89, -187500.02, -15383.86, -134216.41, 13848.31, 0.00, 0.00, 0.00
28, -8426.83, -14674.48, -187500.02, -187500.02, -13882.13, -9695.69, 29038.69, 13607.05, -7434.75, -10507.40, -22548.97, 18809.57, -187500.02, -15497.40, -134395.78, 13653.61, 0.00, 0.00, 0.00
29, -8430.61, -14665.90, -187500.02, -187500.02, -13842.97, -9681.01, 29093.16, 13700.23, -7434.75, -10507.40, -22548.97, 18809.57, -187500.02, -15497.40, -134395.78, 13653.61, 0.00, 0.00, 0.00
30, -8430.61, -14665.90, -187500.02, -187500.02, -13842.97, -9681.01, 29093.16, 13700.23, -7443.18, -10508.25, -22498.17, 18966.82, -187500.02, -15392.28, -134077.11, 14051.38, 0.00, 0.00, 0.00
31, -8422.36, -14675.84, -187500.02, -187500.02, -13879.52, -9709.22, 29116.30, 13741.94, -7443.18, -10508.25, -22498.17, 18966.82, -187500.02, -15392.28, -134077.11, 14051.38, 0.00, 0.00, 0.00
32, -8422.36, -14675.84, -187500.02, -187500.02, -13879.52, -9709.22, 29116.30, 13741.94, -7436.56, -10507.93, -22559.95, 18809.62, -187500.02, -15522.91, -134287.73, 13825.02, 0.00, 0.00, 0.00
33, -8429.40, -14659.21, -187500.02, -187500.02, -13833.45, -9691.65, 29155.88, 13795.70, -7436.56, -10507.93, -22559.95, 18809.62, -187500.02, -15522.91, -134287.73, 13825.02, 0.00, 0.00, 0.00
34, -8429.40, -14659.21, -187500.02, -187500.02, -13833.45, -9691.65, 29155.88, 13795.70, -7443.80, -10503.22, -22484.33, 19002.63, -187500.02, -15377.84, -133932.98, 14257.62, -0.84, -0.40, 0.34
35, -8416.12, -14667.19, -187500.02, -187500.02, -13867.94, -9668.00, 29238.45, 13916.73, -7443.80, -10503.22, -22484.33, 19002.63, -187500.02, -15377.84, -133932.98, 14257.62, 0.00, 0.00, 0.00
36, -8416.12, -14667.19, -187500.02, -187500.02, -13867.94, -9668.00, 29238.45, 13916.73, -7419.06, -10506.73, -22563.97, 18827.10, -187500.02, -15521.79, -134151.30, 14033.03, 0.00, 0.00, 0.00
37, -8422.07, -14656.49, -187500.02, -187500.02, -13837.90, -9692.45, 29212.50, 13887.03, -7419.06, -10506.73, -22563.97, 18827.10, -187500.02, -15521.79, -134151.30, 14033.03, 0.00, 0.00, 0.00
38, -8422.07, -14656.49, -187500.02, -187500.02, -13837.90, -9692.45, 29212.50, 13887.03, -7444.63, -10503.55, -22473.31, 19020.44, -187500.02, -15365.84, -133806.19, 14450.33, 0.00, 0.00, 0.00
39, -8417.06, -14671.48, -187500.02, -187500.02, -13868.43, -9630.03, 29338.92, 14072.81, -7444.63, -10503.55, -22473.31, 19020.44, -187500.02, -15365.84, -133806.19, 14450.33, 0.00, 0.00, 0.00
40, -8417.06, -14671.48, -187500.02, -187500.02, -13868.43, -9630.03, 29338.92, 14072.81, -7424.94, -10511.38, -22572.31, 18859.17, -187500.02, -15510.12, -133984.83, 14265.35, 0.00, 0.00, 0.00
41, -8428.02, -14664.78, -187500.02, -187500.02, -13854.01, -9686.96, 29275.38, 13991.21, -7424.94, -10511.38, -22572.31, 18859.17, -187500.02, -15510.12, -133984.83, 14265.35, 0.00, 0.00, 0.00
42, -8428.02, -14664.78, -187500.02, -187500.02, -13854.01, -9686.96, 29275.38, 13991.21, -7448.65, -10502.77, -22473.11, 19039.53, -187500.02, -15362.24, -133663.78, 14645.94, 0.00, 0.00, 0.00
43, -8426.83, -14674.66, -187500.02, -187500.02, -13860.14, -9586.77, 29453.94, 14244.41, -7448.65, -10502.77, -22473.11, 19039.53, -187500.02, -15362.24, -133663.78, 14645.94, 0.00, 0.00, 0.00
44, -8426.83, -14674.66, -187500.02, -187500.02, -13860.14, -9586.77, 29453.94, 14244.41, -7429.05, -10506.82, -22573.03, 18905.42, -187500.02, -15491.37, -133781.58, 14531.92, -0.84, -0.40, 0.33
45, -8425.11, -14664.60, -187500.02, -187500.02, -13852.60, -9688.65, 29348.29, 14105.36, -7429.05, -10506.82, -22573.03, 18905.42, -187500.02, -15491.37, -133781.58, 14531.92, 0.00, 0.00, 0.00
46, -8425.11, -14664.60, -187500.02, -187500.02, -13852.60, -9688.65, 29348.29, 14105.36, -7451.51, -10497.76, -22482.61, 19036.22, -187500.02, -15377.80, -133538.23, 14827.50, 0.00, 0.00, 0.00
47, -8433.96, -14675.26, -187500.02, -187500.02, -13848.07, -9575.33, 29542.66, 14385.43, -7451.51, -10497.76, -22482.61, 19036.22, -187500.02, -15377.80, -133538.23, 14827.50, 0.00, 0.00, 0.00
48, -8433.96, -14675.26, -187500.02, -187500.02, -13848.07, -9575.33, 29542.66, 14385.43, -7438.06, -10508.05, -22574.88, 18927.75, -187500.02, -15484.30, -133605.78, 14770.52, 0.00, 0.00, 0.00
49, -8433.78, -14662.52, -187500.02, -187500.02, -13855.26, -9676.81, 29431.64, 14230.19, -7438.06, -10508.05, -22574.88, 18927.75, -187500.02, -15484.30, -133605.78, 14770.52, 0.00, 0.00, 0.00
50, -8433.78, -14662.52, -187500.02, -187500.02, -13855.26, -9676.81, 29431.64, 14230.19, -7454.66, -10498.66, -22485.32, 19047.11, -187500.02, -15377.51, -133396.88, 15016.46, 0.00, 0.00, 0.00
51, -8435.12, -14677.14, -187500.02, -187500.02, -13844.67, -9539.84, 29642.17, 14541.17, -7454.66, -10498.66, -22485.32, 19047.11, -187500.02, -15377.51, -133396.88, 15016.46, 0.00, 0.00, 0.00
52, -8435.12, -14677.14, -187500.02, -187500.02, -13844.67, -9539.84, 29642.17, 14541.17, -7429.23, -10514.24, -22569.29, 18984.01, -187500.02, -15456.19, -133389.08, 15046.19, 0.00, 0.00, 0.00
53, -8418.02, -14665.45, -187500.02, -187500.02, -13862.19, -9679.07, 29483.80, 14334.08, -7429.23, -10514.24, -22569.29, 18984.01, -187500.02, -15456.19, -133389.08, 15046.19, 0.00, 0.00, 0.00
54, -8418.02, -14665.45, -187500.02, -187500.02, -13862.19, -9679.07, 29483.80, 14334.08, -7449.57, -10501.81, -22482.21, 19047.55, -187500.02, -15389.78, -133271.16, 15186.27, -0.84, -0.40, 0.33
55, -8438.34, -14679.28, -187500.02, -187500.02, -13832.06, -9486.59, 29750.77, 14695.20, -7449.57, -10501.81, -22482.21, 19047.55, -187500.02, -15389.78, -133271.16, 15186.27, 0.00, 0.00, 0.00
56, -8438.34, -14679.28, -187500.02, -187500.02, -13832.06, -9486.59, 29750.77, 14695.20, -7431.51, -10520.54, -22547.70, 19067.22, -187500.02, -15411.48, -133127.91, 15355.47, 0.00, 0.00, 0.00
57, -8416.75, -14673.54, -187500.02, -187500.02, -13868.90, -9617.06, 29607.57, 14502.15, -7431.51, -10520.54, -22547.70, 19067.22, -187500.02, -15411.48, -133127.91, 15355.47, 0.00, 0.00, 0.00
58, -8416.75, -14673.54, -187500.02, -187500.02, -13868.90, -9617.06, 29607.57, 14502.15, -7437.07, -10506.66, -22500.47, 19053.74, -187500.02, -15410.37, -133108.98, 15385.69, 0.00, 0.00, 0.00
59, -8431.93, -14677.18, -187500.02, -187500.02, -13819.88, -9465.85, 29822.81, 14809.97, -7437.07, -10506.66, -22500.47, 19053.74, -187500.02, -15410.37, -133108.98, 15385.69, 0.00, 0.00, 0.00
60, -8431.93, -14677.18, -187500.02, -187500.02, -13819.88, -9465.85, 29822.81, 14809.97, -7427.22, -10521.08, -22544.33, 19079.02, -187500.02, -15417.54, -132938.38, 15597.40, 0.00, 0.00, 0.00
61, -8407.70, -14667.91, -187500.02, -187500.02, -13865.17, -9603.87, 29673.86, 14606.24, -7427.22, -10521.08, -22544.33, 19079.02, -187500.02, -15417.54, -132938.38, 15597.40, 0.00, 0.00, 0.00
62, -8407.70, -14667.91, -187500.02, -187500.02, -13865.17, -9603.87, 29673.86, 14606.24, -7440.00, -10504.34, -22513.03, 19007.74, -187500.02, -15453.08, -133002.13, 15526.53, 0.00, 0.00, 0.00
63, -8429.58, -14668.64, -187500.02, -187500.02, -13819.17, -9464.51, 29869.46, 14880.11, -7440.00, -10504.34, -22513.03, 19007.74, -187500.02, -15453.08, -133002.13, 15526.53, 0.00, 0.00, 0.00
64, -8429.58, -14668.64, -187500.02, -187500.02, -13819.17, -9464.51, 29869.46, 14880.11, -7434.30, -10516.74, -22533.31, 19064.32, -187500.02, -15422.01, -132782.20, 15790.79, -0.83, -0.40, 0.33
65, -8419.72, -14671.62, -187500.02, -187500.02, -13871.96, -9581.39, 29756.05, 14715.85, -7434.30, -10516.74, -22533.31, 19064.32, -187500.02, -15422.01, -132782.20, 15790.79, 0.00, 0.00, 0.00
66, -8419.72, -14671.62, -187500.02, -187500.02, -13871.96, -9581.39, 29756.05, 14715.85, -7439.62, -10505.77, -22523.40, 18960.74, -187500.02, -15470.27, -132890.53, 15657.44, 0.00, 0.00, 0.00
67, -8435.86, -14670.72, -187500.02, -187500.02, -13825.07, -9470.50, 29919.06, 14943.37, -7439.62, -10505.77, -22523.40, 18960.74, -187500.02, -15470.27, -132890.53, 15657.44, 0.00, 0.00, 0.00
68, -8435.86, -14670.72, -187500.02, -187500.02, -13825.07, -9470.50, 29919.06, 14943.37, -7441.95, -10518.60, -22513.57, 19069.10, -187500.02, -15391.39, -132594.34, 15994.42, 0.00, 0.00, 0.00
69, -8419.14, -14678.12, -187500.02, -187500.02, -13882.80, -9570.48, 29835.40, 14820.90, -7441.95, -10518.60, -22513.57, 19069.10, -187500.02, -15391.39, -132594.34, 15994.42, 0.00, 0.00, 0.00
70, -8419.14, -14678.12, -187500.02, -187500.02, -13882.80, -9570.48, 29835.40, 14820.90, -7433.43, -10509.54, -22553.60, 18887.29, -187500.02, -15515.93, -132806.44, 15746.54, 0.00, 0.00, 0.00
71, -8435.41, -14673.00, -187500.02, -187500.02, -13828.62, -9515.79, 29917.43, 14946.90, -7433.43, -10509.54, -22553.60, 18887.29, -187500.02, -15515.93, -132806.44, 15746.54, 0.00, 0.00, 0.00
72, -8435.41, -14673.00, -187500.02, -187500.02, -13828.62, -9515.79, 29917.43, 14946.90, -7450.19, -10517.72, -22511.87, 19021.51, -187500.02, -15400.51, -132485.36, 16111.05, 0.00, 0.00, 0.00
73, -8428.04, -14685.32, -187500.02, -187500.02, -13877.66, -9560.22, 29894.36, 14898.40, -7450.19, -10517.72, -22511.87, 19021.51, -187500.02, -15400.51, -132485.36, 16111.05, 0.00, 0.00, 0.00
74, -8428.04, -14685.32, -187500.02, -187500.02, -13877.66, -9560.22, 29894.36, 14898.40, -7439.35, -10513.81, -22552.08, 18857.23, -187500.02, -15511.06, -132677.36, 15873.34, -0.83, -0.39, 0.33
75, -8437.40, -14678.14, -187500.02, -187500.02, -13830.57, -9496.88, 29978.07, 15007.65, -7439.35, -10513.81, -22552.08, 18857.23, -187500.02, -15511.06, -132677.36, 15873.34, 0.00, 0.00, 0.00
76, -8437.40, -14678.14, -187500.02, -187500.02, -13830.57, -9496.88, 29978.07, 15007.65, -7449.88, -10520.03, -22492.47, 19025.31, -187500.02, -15372.59, -132301.67, 16289.46, 0.00, 0.00, 0.00
77, -8428.69, -14691.11, -187500.02, -187500.02, -13882.06, -9504.43, 30008.42, 15034.05, -7449.88, -10520.03, -22492.47, 19025.31, -187500.02, -15372.59, -132301.67, 16289.46, 0.00, 0.00, 0.00
78, -8428.69, -14691.11, -187500.02, -187500.02, -13882.06, -9504.43, 30008.42, 15034.05, -7427.22, -10516.09, -22572.56, 18808.39, -187500.02, -15533.63, -132545.42, 15999.87, 0.00, 0.00, 0.00
79, -8430.23, -14676.31, -187500.02, -187500.02, -13835.89, -9516.32, 30003.93, 15035.73, -7427.22, -10516.09, -22572.56, 18808.39, -187500.02, -15533.63, -132545.42, 15999.87, 0.00, 0.00, 0.00
80, -8430.23, -14676.31, -187500.02, -187500.02, -13835.89, -9516.32, 30003.93, 15035.73, -7442.93, -10514.39, -22488.67, 18963.80, -187500.02, -15390.45, -132202.19, 16388.39, 0.00, 0.00, 0.00
81, -8424.73, -14689.99, -187500.02, -187500.02, -13869.79, -9496.12, 30067.32, 15111.14, -7442.93, -10514.39, -22488.67, 18963.80, -187500.02, -15390.45, -132202.19, 16388.39, 0.00, 0.00, 0.00
82, -8424.73, -14689.99, -187500.02, -187500.02, -13869.79, -9496.12, 30067.32, 15111.14, -7419.10, -10514.15, -22572.27, 18752.15, -187500.02, -15544.41, -132444.78, 16102.38, 0.00, 0.00, 0.00
83, -8431.19, -14675.66, -187500.02, -187500.02, -13835.46, -9520.32, 30039.63, 15064.70, -7419.10, -10514.15, -22572.27, 18752.15, -187500.02, -15544.41, -132444.78, 16102.38, 0.00, 0.00, 0.00
84, -8431.19, -14675.66, -187500.02, -187500.02, -13835.46, -9520.32, 30039.63, 15064.70, -7440.14, -10513.59, -22486.73, 18913.87, -187500.02, -15395.57, -132112.22, 16473.57, -0.83, -0.39, 0.33
85, -8425.04, -14687.29, -187500.02, -187500.02, -13872.16, -9502.98, 30106.93, 15161.12, -7440.14, -10513.59, -22486.73, 18913.87, -187500.02, -15395.57, -132112.22, 16473.57, 0.00, 0.00, 0.00
86, -8425.04, -14687.29, -187500.02, -187500.02, -13872.16, -9502.98, 30106.93, 15161.12, -7425.81, -10520.27, -22586.75, 18691.38, -187500.02, -15559.72, -132363.66, 16181.66, 0.00, 0.00, 0.00
87, -8430.99, -14675.91, -187500.02, -187500.02, -13854.64, -9568.16, 30022.59, 15040.51, -7425.81, -10520.27, -22586.75, 18691.38, -187500.02, -15559.72, -132363.66, 16181.66, 0.00, 0.00, 0.00
88, -8430.99, -14675.91, -187500.02, -187500.02, -13854.64, -9568.16, 30022.59, 15040.51, -7443.02, -10513.95, -22486.57, 18844.24, -187500.02, -15406.19, -132064.52, 16505.76, 0.00, 0.00, 0.00
89, -8421.49, -14682.79, -187500.02, -187500.02, -13871.31, -9504.54, 30137.39, 15195.99, -7443.02, -10513.95, -22486.57, 18844.24, -187500.02, -15406.19, -132064.52, 16505.76, 0.00, 0.00, 0.00
90, -8421.49, -14682.79, -187500.02, -187500.02, -13871.31, -9504.54, 30137.39, 15195.99, -7422.95, -10519.07, -22585.70, 18646.90, -187500.02, -15558.11, -132264.55, 16262.57, 0.00, 0.00, 0.00
91, -8429.51, -14672.44, -187500.02, -187500.02, -13860.50, -9597.12, 30014.21, 15015.54, -7422.95, -10519.07, -22585.70, 18646.90, -187500.02, -15558.11, -132264.55, 16262.57, 0.00, 0.00, 0.00
92, -8429.51, -14672.44, -187500.02, -187500.02, -13860.50, -9597.12, 30014.21, 15015.54, -7446.37, -10513.79, -22488.80, 18775.38, -187500.02, -15423.93, -132019.64, 16520.26, 0.00, 0.00, 0.00
93, -8429.89, -14685.72, -187500.02, -187500.02, -13861.30, -9496.32, 30170.07, 15218.65, -7446.37, -10513.79, -22488.80, 18775.38, -187500.02, -15423.93, -132019.64, 16520.26, 0.00, 0.00, 0.00
94, -8429.89, -14685.72, -187500.02, -187500.02, -13861.30, -9496.32, 30170.07, 15218.65, -7416.33, -10520.90, -22590.57, 18605.70, -187500.02, -15557.22, -132173.53, 16332.13, -0.83, -0.40, 0.33
95, -8428.57, -14675.62, -187500.02, -187500.02, -13861.79, -9618.00, 30014.75, 14984.52, -7416.33, -10520.90, -22590.57, 18605.70, -187500.02, -15557.22, -132173.53, 16332.13, 0.00, 0.00, 0.00
96, -8428.57, -14675.62, -187500.02, -187500.02, -13861.79, -9618.00, 30014.75, 14984.52, -7443.31, -10511.26, -22492.31, 18706.98, -187500.02, -15441.19, -131985.03, 16521.38, 0.00, 0.00, 0.00
97, -8430.14, -14683.73, -187500.02, -187500.02, -13855.20, -9499.22, 30195.53, 15220.40, -7443.31, -10511.26, -22492.31, 18706.98, -187500.02, -15441.19, -131985.03, 16521.38, 0.00, 0.00, 0.00
98, -8430.14, -14683.73, -187500.02, -187500.02, -13855.20, -9499.22, 30195.53, 15220.40, -7425.09, -10521.39, -22577.85, 18597.08, -187500.02, -15528.87, -132051.63, 16433.38, 0.00, 0.00, 0.00
