%OpenBCI Raw EEG Data
%Sample Rate = 250.0 Hz
%First Column = SampleIndex
%Other Columns = EEG data in microvolts followed by Accel Data (in G) interleaved with Aux Data
0, -10243.67, 19176.59, 14188.46, 17558.21, -11257.88, 16512.73, 44595.04, 27643.07, -7924.03, 3678.34, 24054.52, 26597.81, -25081.85, -14578.28, 27603.11, -24409.27, 0.00, 0.00, 0.00
1, -10281.76, 19154.35, 14159.56, 17535.90, -11282.83, 16558.84, 44651.88, 27701.95, -7924.03, 3678.34, 24054.52, 26597.81, -25081.85, -14578.28, 27603.11, -24409.27, 0.00, 0.00, 0.00
2, -10281.76, 19154.35, 14159.56, 17535.90, -11282.83, 16558.84, 44651.88, 27701.95, -7942.33, 3668.41, 24059.10, 26633.80, -25077.18, -14597.81, 27629.21, -24435.62, 0.00, 0.00, 0.00
3, -10264.93, 19181.98, 14179.25, 17547.82, -11266.08, 16535.42, 44564.88, 27681.29, -7942.33, 3668.41, 24059.10, 26633.80, -25077.18, -14597.81, 27629.21, -24435.62, 0.00, 0.00, 0.00
4, -10264.93, 19181.98, 14179.25, 17547.82, -11266.08, 16535.42, 44564.88, 27681.29, -7935.11, 3676.28, 24075.80, 26658.46, -25070.41, -14574.16, 27663.10, -24412.33, 0.00, 0.00, 0.00
5, -10277.06, 19157.59, 14160.70, 17543.28, -11280.41, 16564.30, 44597.65, 27721.66, -7935.11, 3676.28, 24075.80, 26658.46, -25070.41, -14574.16, 27663.10, -24412.33, 0.94, 0.16, -0.20
6, -10277.06, 19157.59, 14160.70, 17543.28, -11280.41, 16564.30, 44597.65, 27721.66, -7935.43, 3676.17, 24079.96, 26711.38, -25086.10, -14591.78, 27693.68, -24431.98, 0.00, 0.00, 0.00
7, -10268.08, 19169.53, 14164.12, 17540.96, -11275.63, 16553.86, 44538.13, 27715.34, -7935.43, 3676.17, 24079.96, 26711.38, -25086.10, -14591.78, 27693.68, -24431.98, 0.00, 0.00, 0.00
8, -10268.08, 19169.53, 14164.12, 17540.96, -11275.63, 16553.86, 44538.13, 27715.34, -7954.52, 3671.72, 24079.29, 26707.90, -25072.02, -14583.48, 27706.71, -24422.41, 0.00, 0.00, 0.00
9, -10279.05, 19164.07, 14155.76, 17545.67, -11284.88, 16588.71, 44580.71, 27765.43, -7954.52, 3671.72, 24079.29, 26707.90, -25072.02, -14583.48, 27706.71, -24422.41, 0.00, 0.00, 0.00
10, -10279.05, 19164.07, 14155.76, 17545.67, -11284.88, 16588.71, 44580.71, 27765.43, -7948.50, 3680.64, 24101.97, 26789.97, -25077.29, -14591.58, 27755.23, -24434.17, 0.00, 0.00, 0.00
11, -10271.97, 19173.46, 14162.13, 17543.88, -11275.94, 16581.44, 44538.64, 27764.67, -7948.50, 3680.64, 24101.97, 26789.97, -25077.29, -14591.58, 27755.23, -24434.17, 0.00, 0.00, 0.00
12, -10271.97, 19173.46, 14162.13, 17543.88, -11275.94, 16581.44, 44538.64, 27764.67, -7926.00, 3675.99, 24084.76, 26741.54, -25052.64, -14583.51, 27738.27, -24434.57, 0.00, 0.00, 0.00
13, -10266.63, 19176.81, 14168.37, 17553.70, -11275.72, 16583.54, 44537.70, 27781.72, -7926.00, 3675.99, 24084.76, 26741.54, -25052.64, -14583.51, 27738.27, -24434.57, 0.00, 0.00, 0.00
14, -10266.63, 19176.81, 14168.37, 17553.70, -11275.72, 16583.54, 44537.70, 27781.72, -7919.22, 3667.30, 24088.79, 26797.10, -25068.06, -14600.67, 27765.52, -24443.29, 0.00, 0.00, 0.00
15, -10275.63, 19162.37, 14153.08, 17534.18, -11289.73, 16563.20, 44479.86, 27760.62, -7919.22, 3667.30, 24088.79, 26797.10, -25068.06, -14600.67, 27765.52, -24443.29, 0.94, 0.15, -0.19
16, -10275.63, 19162.37, 14153.08, 17534.18, -11289.73, 16563.20, 44479.86, 27760.62, -7908.07, 3655.27, 24062.86, 26730.14, -25061.31, -14603.94, 27729.84, -24448.25, 0.00, 0.00, 0.00
17, -10277.64, 19159.69, 14152.14, 17540.06, -11282.62, 16579.38, 44485.67, 27787.06, -7908.07, 3655.27, 24062.86, 26730.14, -25061.31, -14603.94, 27729.84, -24448.25, 0.00, 0.00, 0.00
18, -10277.64, 19159.69, 14152.14, 17540.06, -11282.62, 16579.38, 44485.67, 27787.06, -7947.99, 3666.92, 24083.22, 26805.08, -25052.84, -14600.61, 27774.32, -24437.21, 0.00, 0.00, 0.00
19, -10271.65, 19174.20, 14164.32, 17544.67, -11275.36, 16566.49, 44430.19, 27775.08, -7947.99, 3666.92, 24083.22, 26805.08, -25052.84, -14600.61, 27774.32, -24437.21, 0.00, 0.00, 0.00
20, -10271.65, 19174.20, 14164.32, 17544.67, -11275.36, 16566.49, 44430.19, 27775.08, -7958.43, 3658.04, 24061.88, 26728.37, -25050.13, -14608.05, 27732.75, -24444.85, 0.00, 0.00, 0.00
21, -10282.67, 19155.40, 14158.09, 17547.53, -11282.07, 16581.06, 44433.79, 27800.63, -7958.43, 3658.04, 24061.88, 26728.37, -25050.13, -14608.05, 27732.75, -24444.85, 0.00, 0.00, 0.00
22, -10282.67, 19155.40, 14158.09, 17547.53, -11282.07, 16581.06, 44433.79, 27800.63, -7928.99, 3676.33, 24088.07, 26822.61, -25050.67, -14597.34, 27790.30, -24432.45, 0.00, 0.00, 0.00
23, -10271.07, 19164.03, 14164.84, 17547.24, -11280.86, 16571.98, 44395.26, 27795.13, -7928.99, 3676.33, 24088.07, 26822.61, -25050.67, -14597.34, 27790.30, -24432.45, 0.00, 0.00, 0.00
24, -10271.07, 19164.03, 14164.84, 17547.24, -11280.86, 16571.98, 44395.26, 27795.13, -7911.02, 3662.53, 24053.96, 26723.88, -25043.97, -14600.63, 27725.79, -24450.93, 0.00, 0.00, 0.00
25, -10280.80, 19154.86, 14147.16, 17539.93, -11289.11, 16576.79, 44369.82, 27799.94, -7911.02, 3662.53, 24053.96, 26723.88, -25043.97, -14600.63, 27725.79, -24450.93, 0.94, 0.15, -0.19
26, -10280.80, 19154.86, 14147.16, 17539.93, -11289.11, 16576.79, 44369.82, 27799.94, -7925.37, 3676.88, 24074.04, 26809.89, -25062.25, -14595.84, 27771.97, -24438.55, 0.00, 0.00, 0.00
27, -10272.10, 19170.42, 14160.14, 17535.57, -11285.26, 16564.32, 44327.17, 27790.21, -7925.37, 3676.88, 24074.04, 26809.89, -25062.25, -14595.84, 27771.97, -24438.55, 0.00, 0.00, 0.00
28, -10272.10, 19170.42, 14160.14, 17535.57, -11285.26, 16564.32, 44327.17, 27790.21, -7939.63, 3654.78, 24046.88, 26705.17, -25034.04, -14601.41, 27706.97, -24452.63, 0.00, 0.00, 0.00
29, -10274.83, 19158.93, 14165.28, 17549.47, -11278.40, 16564.83, 44285.49, 27790.84, -7939.63, 3654.78, 24046.88, 26705.17, -25034.04, -14601.41, 27706.97, -24452.63, 0.00, 0.00, 0.00
30, -10274.83, 19158.93, 14165.28, 17549.47, -11278.40, 16564.83, 44285.49, 27790.84, -7915.96, 3668.93, 24069.32, 26783.67, -25040.99, -14588.51, 27763.14, -24431.73, 0.00, 0.00, 0.00
31, -10284.31, 19164.99, 14147.13, 17531.28, -11294.40, 16570.11, 44275.32, 27795.96, -7915.96, 3668.93, 24069.32, 26783.67, -25040.99, -14588.51, 27763.14, -24431.73, 0.00, 0.00, 0.00
32, -10284.31, 19164.99, 14147.13, 17531.28, -11294.40, 16570.11, 44275.32, 27795.96, -7942.76, 3645.50, 24042.61, 26702.35, -25048.71, -14614.84, 27709.86, -24468.57, 0.00, 0.00, 0.00
33, -10295.48, 19152.34, 14151.78, 17535.39, -11288.32, 16570.64, 44243.98, 27800.41, -7942.76, 3645.50, 24042.61, 26702.35, -25048.71, -14614.84, 27709.86, -24468.57, 0.00, 0.00, 0.00
34, -10295.48, 19152.34, 14151.78, 17535.39, -11288.32, 16570.64, 44243.98, 27800.41, -7970.07, 3658.24, 24069.72, 26777.81, -25041.84, -14601.75, 27769.78, -24435.28, 0.00, 0.00, 0.00
35, -10292.80, 19146.12, 14144.70, 17528.08, -11296.10, 16585.98, 44266.62, 27827.05, -7970.07, 3658.24, 24069.72, 26777.81, -25041.84, -14601.75, 27769.78, -24435.28, 0.94, 0.16, -0.19
36, -10292.80, 19146.12, 14144.70, 17528.08, -11296.10, 16585.98, 44266.62, 27827.05, -7940.43, 3645.88, 24036.35, 26699.22, -25039.72, -14619.76, 27723.20, -24460.03, 0.00, 0.00, 0.00
37, -10289.25, 19157.84, 14152.95, 17533.94, -11288.97, 16579.07, 44220.82, 27819.16, -7940.43, 3645.88, 24036.35, 26699.22, -25039.72, -14619.76, 27723.20, -24460.03, 0.00, 0.00, 0.00
38, -10289.25, 19157.84, 14152.95, 17533.94, -11288.97, 16579.07, 44220.82, 27819.16, -7936.84, 3665.31, 24056.64, 26760.60, -25044.90, -14606.42, 27773.47, -24434.93, 0.00, 0.00, 0.00
39, -10286.63, 19143.40, 14149.70, 17523.12, -11295.97, 16583.36, 44232.56, 27830.20, -7936.84, 3665.31, 24056.64, 26760.60, -25044.90, -14606.42, 27773.47, -24434.93, 0.00, 0.00, 0.00
40, -10286.63, 19143.40, 14149.70, 17523.12, -11295.97, 16583.36, 44232.56, 27830.20, -7937.35, 3657.64, 24037.36, 26701.97, -25040.84, -14617.62, 27738.51, -24458.64, 0.00, 0.00, 0.00
41, -10278.92, 19153.57, 14166.89, 17544.17, -11282.60, 16573.71, 44180.03, 27820.86, -7937.35, 3657.64, 24037.36, 26701.97, -25040.84, -14617.62, 27738.51, -24458.64, 0.00, 0.00, 0.00
42, -10278.92, 19153.57, 14166.89, 17544.17, -11282.60, 16573.71, 44180.03, 27820.86, -7942.49, 3677.93, 24070.21, 26761.79, -25047.65, -14589.47, 27789.61, -24425.40, 0.00, 0.00, 0.00
43, -10297.54, 19144.22, 14143.85, 17529.87, -11306.00, 16603.84, 44228.80, 27851.57, -7942.49, 3677.93, 24070.21, 26761.79, -25047.65, -14589.47, 27789.61, -24425.40, 0.00, 0.00, 0.00
44, -10297.54, 19144.22, 14143.85, 17529.87, -11306.00, 16603.84, 44228.80, 27851.57, -7941.66, 3670.87, 24069.63, 26758.99, -25087.96, -14615.40, 27775.89, -24466.06, 0.00, 0.00, 0.00
45, -10284.69, 19159.89, 14156.23, 17531.30, -11296.12, 16582.80, 44177.77, 27832.66, -7941.66, 3670.87, 24069.63, 26758.99, -25087.96, -14615.40, 27775.89, -24466.06, 0.95, 0.16, -0.19
46, -10284.69, 19159.89, 14156.23, 17531.30, -11296.12, 16582.80, 44177.77, 27832.66, -7946.60, 3681.71, 24087.36, 26791.96, -25092.31, -14595.20, 27802.93, -24441.41, 0.00, 0.00, 0.00
47, -10277.51, 19153.28, 14155.31, 17536.75, -11292.66, 16589.75, 44198.45, 27847.03, -7946.60, 3681.71, 24087.36, 26791.96, -25092.31, -14595.20, 27802.93, -24441.41, 0.00, 0.00, 0.00
48, -10277.51, 19153.28, 14155.31, 17536.75, -11292.66, 16589.75, 44198.45, 27847.03, -7914.62, 3682.34, 24080.70, 26786.75, -25132.17, -14604.83, 27787.53, -24461.19, 0.00, 0.00, 0.00
49, -10286.58, 19148.36, 14151.49, 17532.37, -11291.47, 16575.85, 44147.53, 27825.84, -7914.62, 3682.34, 24080.70, 26786.75, -25132.17, -14604.83, 27787.53, -24461.19, 0.00, 0.00, 0.00
50, -10286.58, 19148.36, 14151.49, 17532.37, -11291.47, 16575.85, 44147.53, 27825.84, -7951.57, 3682.11, 24090.35, 26801.64, -25148.62, -14595.17, 27807.76, -24441.63, 0.00, 0.00, 0.00
51, -10282.99, 19150.01, 14158.09, 17535.32, -11291.27, 16586.29, 44176.50, 27847.39, -7951.57, 3682.11, 24090.35, 26801.64, -25148.62, -14595.17, 27807.76, -24441.63, 0.00, 0.00, 0.00
52, -10282.99, 19150.01, 14158.09, 17535.32, -11291.27, 16586.29, 44176.50, 27847.39, -7914.66, 3675.16, 24080.65, 26799.94, -25157.85, -14599.91, 27801.37, -24451.91, 0.00, 0.00, 0.00
53, -10274.25, 19157.14, 14156.92, 17537.58, -11293.13, 16576.10, 44128.58, 27836.91, -7914.66, 3675.16, 24080.65, 26799.94, -25157.85, -14599.91, 27801.37, -24451.91, 0.00, 0.00, 0.00
54, -10274.25, 19157.14, 14156.92, 17537.58, -11293.13, 16576.10, 44128.58, 27836.91, -7949.84, 3674.96, 24087.96, 26804.32, -25178.75, -14591.80, 27809.86, -24443.26, 0.00, 0.00, 0.00
55, -10287.88, 19155.09, 14146.96, 17531.01, -11303.05, 16597.60, 44178.22, 27870.54, -7949.84, 3674.96, 24087.96, 26804.32, -25178.75, -14591.80, 27809.86, -24443.26, 0.94, 0.16, -0.19
56, -10287.88, 19155.09, 14146.96, 17531.01, -11303.05, 16597.60, 44178.22, 27870.54, -7931.14, 3669.62, 24080.12, 26826.12, -25185.41, -14603.44, 27808.74, -24462.42, 0.00, 0.00, 0.00
57, -10270.18, 19154.64, 14154.69, 17524.91, -11293.87, 16577.17, 44124.00, 27848.39, -7931.14, 3669.62, 24080.12, 26826.12, -25185.41, -14603.44, 27808.74, -24462.42, 0.00, 0.00, 0.00
58, -10270.18, 19154.64, 14154.69, 17524.91, -11293.87, 16577.17, 44124.00, 27848.39, -7944.97, 3665.53, 24067.15, 26781.70, -25183.87, -14594.66, 27785.68, -24457.12, 0.00, 0.00, 0.00
59, -10280.75, 19159.94, 14160.37, 17531.90, -11293.53, 16588.21, 44146.50, 27872.51, -7944.97, 3665.53, 24067.15, 26781.70, -25183.87, -14594.66, 27785.68, -24457.12, 0.00, 0.00, 0.00
60, -10280.75, 19159.94, 14160.37, 17531.90, -11293.53, 16588.21, 44146.50, 27872.51, -7928.77, 3669.53, 24065.59, 26805.31, -25174.43, -14587.80, 27792.96, -24449.57, 0.00, 0.00, 0.00
61, -10265.06, 19164.97, 14169.11, 17543.04, -11288.12, 16570.96, 44088.61, 27849.47, -7928.77, 3669.53, 24065.59, 26805.31, -25174.43, -14587.80, 27792.96, -24449.57, 0.00, 0.00, 0.00
62, -10265.06, 19164.97, 14169.11, 17543.04, -11288.12, 16570.96, 44088.61, 27849.47, -7949.35, 3667.43, 24063.42, 26766.82, -25191.96, -14588.76, 27774.21, -24444.36, 0.00, 0.00, 0.00
63, -10300.91, 19133.88, 14143.76, 17520.48, -11308.19, 16604.39, 44145.12, 27892.65, -7949.35, 3667.43, 24063.42, 26766.82, -25191.96, -14588.76, 27774.21, -24444.36, 0.00, 0.00, 0.00
64, -10300.91, 19133.88, 14143.76, 17520.48, -11308.19, 16604.39, 44145.12, 27892.65, -7970.50, 3659.49, 24074.01, 26835.32, -25201.17, -14607.27, 27802.55, -24455.98, 0.00, 0.00, 0.00
65, -10286.97, 19127.06, 14150.42, 17509.95, -11302.54, 16575.03, 44092.86, 27868.33, -7970.50, 3659.49, 24074.01, 26835.32, -25201.17, -14607.27, 27802.55, -24455.98, 0.94, 0.16, -0.19
66, -10286.97, 19127.06, 14150.42, 17509.95, -11302.54, 16575.03, 44092.86, 27868.33, -7953.89, 3652.32, 24057.16, 26770.84, -25211.96, -14613.41, 27760.93, -24463.04, 0.00, 0.00, 0.00
67, -10306.01, 19122.19, 14132.27, 17502.44, -11320.13, 16597.67, 44130.52, 27902.06, -7953.89, 3652.32, 24057.16, 26770.84, -25211.96, -14613.41, 27760.93, -24463.04, 0.00, 0.00, 0.00
68, -10306.01, 19122.19, 14132.27, 17502.44, -11320.13, 16597.67, 44130.52, 27902.06, -7962.32, 3656.75, 24065.34, 26837.96, -25205.50, -14610.13, 27794.19, -24466.33, 0.00, 0.00, 0.00
69, -10282.56, 19147.29, 14150.13, 17513.24, -11303.68, 16572.63, 44081.55, 27875.96, -7962.32, 3656.75, 24065.34, 26837.96, -25205.50, -14610.13, 27794.19, -24466.33, 0.00, 0.00, 0.00
70, -10282.56, 19147.29, 14150.13, 17513.24, -11303.68, 16572.63, 44081.55, 27875.96, -7950.27, 3657.55, 24049.78, 26768.87, -25198.71, -14601.70, 27753.15, -24468.59, 0.00, 0.00, 0.00
71, -10295.26, 19140.60, 14136.27, 17512.59, -11315.30, 16592.19, 44108.53, 27900.54, -7950.27, 3657.55, 24049.78, 26768.87, -25198.71, -14601.70, 27753.15, -24468.59, 0.00, 0.00, 0.00
72, -10295.26, 19140.60, 14136.27, 17512.59, -11315.30, 16592.19, 44108.53, 27900.54, -7922.55, 3666.54, 24060.36, 26854.50, -25207.63, -14600.14, 27806.29, -24463.51, 0.00, 0.00, 0.00
73, -10289.11, 19141.79, 14149.97, 17508.70, -11305.27, 16575.34, 44085.28, 27894.19, -7922.55, 3666.54, 24060.36, 26854.50, -25207.63, -14600.14, 27806.29, -24463.51, 0.00, 0.00, 0.00
74, -10289.11, 19141.79, 14149.97, 17508.70, -11305.27, 16575.34, 44085.28, 27894.19, -7970.97, 3650.93, 24034.70, 26767.73, -25186.08, -14599.69, 27764.55, -24469.04, 0.00, 0.00, 0.00
75, -10301.58, 19133.23, 14158.13, 17521.55, -11304.73, 16581.19, 44080.23, 27899.89, -7970.97, 3650.93, 24034.70, 26767.73, -25186.08, -14599.69, 27764.55, -24469.04, 0.94, 0.16, -0.19
76, -10301.58, 19133.23, 14158.13, 17521.55, -11304.73, 16581.19, 44080.23, 27899.89, -7977.72, 3668.68, 24062.97, 26863.31, -25199.24, -14586.23, 27825.87, -24444.65, 0.00, 0.00, 0.00
77, -10302.05, 19127.42, 14147.67, 17516.14, -11311.35, 16588.97, 44088.59, 27908.37, -7977.72, 3668.68, 24062.97, 26863.31, -25199.24, -14586.23, 27825.87, -24444.65, 0.00, 0.00, 0.00
78, -10302.05, 19127.42, 14147.67, 17516.14, -11311.35, 16588.97, 44088.59, 27908.37, -7949.29, 3660.05, 24042.92, 26803.72, -25213.88, -14598.01, 27784.09, -24469.44, 0.00, 0.00, 0.00
79, -10316.87, 19106.29, 14122.50, 17501.82, -11338.53, 16603.26, 44105.54, 27929.11, -7949.29, 3660.05, 24042.92, 26803.72, -25213.88, -14598.01, 27784.09, -24469.44, 0.00, 0.00, 0.00
80, -10316.87, 19106.29, 14122.50, 17501.82, -11338.53, 16603.26, 44105.54, 27929.11, -7957.44, 3669.33, 24065.05, 26904.79, -25225.93, -14592.87, 27843.68, -24460.23, 0.00, 0.00, 0.00
81, -10312.85, 19115.08, 14132.16, 17496.61, -11325.61, 16582.15, 44101.89, 27918.13, -7957.44, 3669.33, 24065.05, 26904.79, -25225.93, -14592.87, 27843.68, -24460.23, 0.00, 0.00, 0.00
82, -10312.85, 19115.08, 14132.16, 17496.61, -11325.61, 16582.15, 44101.89, 27918.13, -8001.61, 3653.55, 24041.65, 26833.71, -25207.22, -14600.07, 27797.41, -24481.31, 0.00, 0.00, 0.00
83, -10308.87, 19119.23, 14130.30, 17500.32, -11324.24, 16575.70, 44082.58, 27914.96, -8001.61, 3653.55, 24041.65, 26833.71, -25207.22, -14600.07, 27797.41, -24481.31, 0.00, 0.00, 0.00
84, -10308.87, 19119.23, 14130.30, 17500.32, -11324.24, 16575.70, 44082.58, 27914.96, -7977.00, 3667.81, 24073.97, 26922.94, -25214.00, -14585.65, 27857.96, -24458.15, 0.00, 0.00, 0.00
85, -10325.05, 19111.46, 14126.66, 17496.61, -11327.84, 16581.60, 44119.75, 27936.08, -7977.00, 3667.81, 24073.97, 26922.94, -25214.00, -14585.65, 27857.96, -24458.15, 0.94, 0.16, -0.19
86, -10325.05, 19111.46, 14126.66, 17496.61, -11327.84, 16581.60, 44119.75, 27936.08, -7975.77, 3656.77, 24056.40, 26871.24, -25206.49, -14596.18, 27818.78, -24479.96, 0.00, 0.00, 0.00
87, -10312.40, 19114.92, 14138.98, 17511.61, -11315.24, 16571.16, 44091.41, 27932.91, -7975.77, 3656.77, 24056.40, 26871.24, -25206.49, -14596.18, 27818.78, -24479.96, 0.00, 0.00, 0.00
88, -10312.40, 19114.92, 14138.98, 17511.61, -11315.24, 16571.16, 44091.41, 27932.91, -7966.90, 3663.00, 24072.16, 26928.17, -25194.42, -14581.00, 27863.04, -24448.54, 0.00, 0.00, 0.00
89, -10308.33, 19115.99, 14137.50, 17516.73, -11321.67, 16584.23, 44132.42, 27952.17, -7966.90, 3663.00, 24072.16, 26928.17, -25194.42, -14581.00, 27863.04, -24448.54, 0.00, 0.00, 0.00
90, -10308.33, 19115.99, 14137.50, 17516.73, -11321.67, 16584.23, 44132.42, 27952.17, -7935.11, 3656.43, 24053.38, 26886.22, -25195.56, -14593.59, 27836.75, -24473.97, 0.00, 0.00, 0.00
91, -10320.78, 19125.98, 14132.58, 17512.37, -11327.48, 16581.35, 44114.41, 27948.29, -7935.11, 3656.43, 24053.38, 26886.22, -25195.56, -14593.59, 27836.75, -24473.97, 0.00, 0.00, 0.00
92, -10320.78, 19125.98, 14132.58, 17512.37, -11327.48, 16581.35, 44114.41, 27948.29, -8004.34, 3658.40, 24062.48, 26925.92, -25190.62, -14588.45, 27867.51, -24462.02, 0.00, 0.00, 0.00
93, -10326.48, 19105.94, 14132.90, 17512.88, -11322.37, 16592.41, 44161.39, 27974.88, -8004.34, 3658.40, 24062.48, 26925.92, -25190.62, -14588.45, 27867.51, -24462.02, 0.00, 0.00, 0.00
94, -10326.48, 19105.94, 14132.90, 17512.88, -11322.37, 16592.41, 44161.39, 27974.88, -7969.69, 3639.65, 24032.64, 26872.52, -25182.55, -14602.55, 27830.87, -24483.59, 0.00, 0.00, 0.00
95, -10312.56, 19124.82, 14137.43, 17521.62, -11319.48, 16581.04, 44121.29, 27959.66, -7969.69, 3639.65, 24032.64, 26872.52, -25182.55, -14602.55, 27830.87, -24483.59, 0.94, 0.16, -0.19
96, -10312.56, 19124.82, 14137.43, 17521.62, -11319.48, 16581.04, 44121.29, 27959.66, -7994.44, 3641.99, 24036.86, 26881.41, -25178.88, -14589.50, 27850.34, -24462.58, 0.00, 0.00, 0.00
97, -10321.68, 19109.96, 14144.63, 17527.10, -11310.47, 16604.44, 44175.96, 27983.76, -7994.44, 3641.99, 24036.86, 26881.41, -25178.88, -14589.50, 27850.34, -24462.58, 0.00, 0.00, 0.00
98, -10321.68, 19109.96, 14144.63, 17527.10, -11310.47, 16604.44, 44175.96, 27983.76, -7971.95, 3628.25, 24014.02, 26846.88, -25169.20, -14596.87, 27826.02, -24475.90, 0.00, 0.00, 0.00
99, -10288.33, 19134.41, 14167.03, 17546.95, -11291.81, 16586.00, 44121.61, 27955.66, -7971.95, 3628.25, 24014.02, 26846.88, -25169.20, -14596.87, 27826.02, -24475.90, 0.00, 0.00, 0.00
100, -10288.33, 19134.41, 14167.03, 17546.95, -11291.81, 16586.00, 44121.61, 27955.66, -7945.67, 3630.35, 24009.95, 26815.68, -25161.71, -14575.28, 27825.60, -24449.83, 0.00, 0.00, 0.00
101, -10308.02, 19126.99, 14146.44, 17537.83, -11310.03, 16610.83, 44182.91, 27982.93, -7945.67, 3630.35, 24009.95, 26815.68, -25161.71, -14575.28, 27825.60, -24449.83, 0.00, 0.00, 0.00
102, -10308.02, 19126.99, 14146.44, 17537.83, -11310.03, 16610.83, 44182.91, 27982.93, -7959.12, 3619.04, 24001.23, 26815.68, -25170.50, -14598.37, 27822.33, -24477.35, 0.00, 0.00, 0.00
103, -10300.53, 19129.20, 14159.92, 17538.52, -11294.67, 16590.00, 44134.64, 27954.57, -7959.12, 3619.04, 24001.23, 26815.68, -25170.50, -14598.37, 27822.33, -24477.35, 0.00, 0.00, 0.00
104, -10300.53, 19129.20, 14159.92, 17538.52, -11294.67, 16590.00, 44134.64, 27954.57, -7967.64, 3615.44, 24002.20, 26787.60, -25163.08, -14585.70, 27822.56, -24459.85, 0.00, 0.00, 0.00
105, -10331.92, 19095.97, 14141.75, 17532.08, -11309.87, 16616.13, 44193.89, 27986.24, -7967.64, 3615.44, 24002.20, 26787.60, -25163.08, -14585.70, 27822.56, -24459.85, 0.93, 0.16, -0.19
106, -10331.92, 19095.97, 14141.75, 17532.08, -11309.87, 16616.13, 44193.89, 27986.24, -7985.74, 3615.95, 24012.63, 26830.14, -25172.51, -14597.41, 27848.28, -24472.57, 0.00, 0.00, 0.00
107, -10330.33, 19102.74, 14148.18, 17531.21, -11304.08, 16590.96, 44145.01, 27954.92, -7985.74, 3615.95, 24012.63, 26830.14, -25172.51, -14597.41, 27848.28, -24472.57, 0.00, 0.00, 0.00
108, -10330.33, 19102.74, 14148.18, 17531.21, -11304.08, 16590.96, 44145.01, 27954.92, -7990.44, 3615.95, 24015.21, 26803.59, -25180.42, -14599.53, 27840.13, -24469.93, 0.00, 0.00, 0.00
109, -10352.54, 19060.79, 14131.91, 17520.08, -11319.66, 16608.20, 44199.61, 27984.43, -7990.44, 3615.95, 24015.21, 26803.59, -25180.42, -14599.53, 27840.13, -24469.93, 0.00, 0.00, 0.00
110, -10352.54, 19060.79, 14131.91, 17520.08, -11319.66, 16608.20, 44199.61, 27984.43, -7982.25, 3623.11, 24031.19, 26880.32, -25182.77, -14607.78, 27873.52, -24479.70, 0.00, 0.00, 0.00
111, -10353.64, 19066.19, 14129.12, 17512.30, -11322.28, 16592.15, 44176.77, 27973.86, -7982.25, 3623.11, 24031.19, 26880.32, -25182.77, -14607.78, 27873.52, -24479.70, 0.00, 0.00, 0.00
112, -10353.64, 19066.19, 14129.12, 17512.30, -11322.28, 16592.15, 44176.77, 27973.86, -7984.00, 3622.14, 24027.30, 26853.21, -25187.76, -14610.58, 27857.29, -24488.53, 0.00, 0.00, 0.00
113, -10358.09, 19068.41, 14129.77, 17516.75, -11319.71, 16604.19, 44216.98, 27998.15, -7984.00, 3622.14, 24027.30, 26853.21, -25187.76, -14610.58, 27857.29, -24488.53, 0.00, 0.00, 0.00
114, -10358.09, 19068.41, 14129.77, 17516.75, -11319.71, 16604.19, 44216.98, 27998.15, -7970.52, 3635.44, 24045.27, 26942.52, -25180.71, -14601.79, 27901.88, -24475.88, 0.00, 0.00, 0.00
115, -10344.28, 19072.97, 14141.30, 17525.73, -11308.40, 16601.04, 44205.85, 27992.90, -7970.52, 3635.44, 24045.27, 26942.52, -25180.71, -14601.79, 27901.88, -24475.88, 0.94, 0.15, -0.19
116, -10344.28, 19072.97, 14141.30, 17525.73, -11308.40, 16601.04, 44205.85, 27992.90, -7957.82, 3626.30, 24027.14, 26887.09, -25173.56, -14598.50, 27868.51, -24471.92, 0.00, 0.00, 0.00
117, -10362.09, 19056.98, 14139.00, 17528.71, -11308.17, 16621.20, 44241.70, 28022.72, -7957.82, 3626.30, 24027.14, 26887.09, -25173.56, -14598.50, 27868.51, -24471.92, 0.00, 0.00, 0.00
118, -10362.09, 19056.98, 14139.00, 17528.71, -11308.17, 16621.20, 44241.70, 28022.72, -7995.02, 3626.84, 24040.20, 26972.92, -25169.05, -14600.09, 27915.38, -24469.17, 0.00, 0.00, 0.00
119, -10357.64, 19078.38, 14155.52, 17524.71, -11298.90, 16608.17, 44227.04, 28014.36, -7995.02, 3626.84, 24040.20, 26972.92, -25169.05, -14600.09, 27915.38, -24469.17, 0.00, 0.00, 0.00
120, -10357.64, 19078.38, 14155.52, 17524.71, -11298.90, 16608.17, 44227.04, 28014.36, -7992.02, 3609.78, 24012.57, 26889.19, -25151.75, -14602.46, 27863.08, -24474.60, 0.00, 0.00, 0.00
121, -10361.35, 19066.17, 14164.75, 17536.89, -11286.89, 16628.11, 44248.88, 28043.97, -7992.02, 3609.78, 24012.57, 26889.19, -25151.75, -14602.46, 27863.08, -24474.60, 0.00, 0.00, 0.00
122, -10361.35, 19066.17, 14164.75, 17536.89, -11286.89, 16628.11, 44248.88, 28043.97, -7992.72, 3622.37, 24031.32, 26976.54, -25150.16, -14596.02, 27910.02, -24448.90, 0.00, 0.00, 0.00
123, -10339.40, 19088.14, 14171.99, 17533.45, -11277.93, 16620.80, 44235.38, 28033.91, -7992.72, 3622.37, 24031.32, 26976.54, -25150.16, -14596.02, 27910.02, -24448.90, 0.00, 0.00, 0.00
124, -10339.40, 19088.14, 14171.99, 17533.45, -11277.93, 16620.80, 44235.38, 28033.91, -7944.73, 3619.95, 24001.23, 26891.40, -25130.45, -14591.64, 27846.88, -24457.95, 0.00, 0.00, 0.00
125, -10339.16, 19096.82, 14175.88, 17547.30, -11277.77, 16630.75, 44230.19, 28038.77, -7944.73, 3619.95, 24001.23, 26891.40, -25130.45, -14591.64, 27846.88, -24457.95, 0.94, 0.16, -0.19
126, -10339.16, 19096.82, 14175.88, 17547.30, -11277.77, 16630.75, 44230.19, 28038.77, -7951.81, 3652.52, 24042.70, 27021.76, -25136.12, -14571.46, 27915.27, -24431.13, 0.00, 0.00, 0.00
127, -10330.22, 19102.34, 14187.72, 17546.81, -11272.01, 16642.71, 44245.48, 28051.48, -7951.81, 3652.52, 24042.70, 27021.76, -25136.12, -14571.46, 27915.27, -24431.13, 0.00, 0.00, 0.00
128, -10330.22, 19102.34, 14187.72, 17546.81, -11272.01, 16642.71, 44245.48, 28051.48, -7945.98, 3656.10, 24029.22, 26978.62, -25110.53, -14574.16, 27866.63, -24442.39, 0.00, 0.00, 0.00
129, -10330.19, 19103.21, 14193.63, 17556.20, -11264.56, 16631.80, 44208.44, 28030.92, -7945.98, 3656.10, 24029.22, 26978.62, -25110.53, -14574.16, 27866.63, -24442.39, 0.00, 0.00, 0.00
130, -10330.19, 19103.21, 14193.63, 17556.20, -11264.56, 16631.80, 44208.44, 28030.92, -7970.10, 3676.37, 24062.88, 27104.39, -25118.53, -14565.74, 27925.42, -24420.13, 0.00, 0.00, 0.00
131, -10345.79, 19101.40, 14184.48, 17544.35, -11277.73, 16642.21, 44222.59, 28036.89, -7970.10, 3676.37, 24062.88, 27104.39, -25118.53, -14565.74, 27925.42, -24420.13, 0.00, 0.00, 0.00
132, -10345.79, 19101.40, 14184.48, 17544.35, -11277.73, 16642.21, 44222.59, 28036.89, -7978.46, 3672.68, 24049.98, 27094.52, -25113.70, -14580.74, 27886.26, -24446.62, 0.00, 0.00, 0.00
133, -10364.68, 19074.55, 14178.65, 17534.81, -11287.99, 16635.08, 44187.05, 28022.98, -7978.46, 3672.68, 24049.98, 27094.52, -25113.70, -14580.74, 27886.26, -24446.62, 0.00, 0.00, 0.00
134, -10364.68, 19074.55, 14178.65, 17534.81, -11287.99, 16635.08, 44187.05, 28022.98, -8008.52, 3691.19, 24079.98, 27228.87, -25125.95, -14576.29, 27942.79, -24428.38, 0.00, 0.00, 0.00
135, -10373.51, 19058.50, 14165.73, 17515.32, -11298.72, 16646.30, 44219.73, 28035.66, -8008.52, 3691.19, 24079.98, 27228.87, -25125.95, -14576.29, 27942.79, -24428.38, 0.94, 0.16, -0.20
136, -10373.51, 19058.50, 14165.73, 17515.32, -11298.72, 16646.30, 44219.73, 28035.66, -7964.91, 3692.84, 24074.62, 27259.83, -25116.65, -14588.45, 27911.96, -24450.13, 0.00, 0.00, 0.00
137, -10350.38, 19092.86, 14189.71, 17542.86, -11285.31, 16643.27, 44181.73, 28024.04, -7964.91, 3692.84, 24074.62, 27259.83, -25116.65, -14588.45, 27911.96, -24450.13, 0.00, 0.00, 0.00
138, -10350.38, 19092.86, 14189.71, 17542.86, -11285.31, 16643.27, 44181.73, 28024.04, -7980.71, 3734.73, 24127.99, 27440.99, -25103.13, -14556.77, 27983.51, -24403.97, 0.00, 0.00, 0.00
139, -10367.43, 19078.00, 14180.55, 17535.70, -11300.06, 16691.57, 44252.79, 28071.04, -7980.71, 3734.73, 24127.99, 27440.99, -25103.13, -14556.77, 27983.51, -24403.97, 0.00, 0.00, 0.00
140, -10367.43, 19078.00, 14180.55, 17535.70, -11300.06, 16691.57, 44252.79, 28071.04, -7998.71, 3748.68, 24142.30, 27593.03, -25113.57, -14575.06, 27995.58, -24426.97, 0.00, 0.00, 0.00
141, -10381.45, 19056.34, 14168.79, 17521.13, -11314.47, 16721.14, 44269.75, 28090.44, -7998.71, 3748.68, 24142.30, 27593.03, -25113.57, -14575.06, 27995.58, -24426.97, 0.00, 0.00, 0.00
142, -10381.45, 19056.34, 14168.79, 17521.13, -11314.47, 16721.14, 44269.75, 28090.44, -8011.98, 3763.59, 24164.74, 27813.57, -25134.36, -14585.92, 28055.48, -24421.07, 0.00, 0.00, 0.00
143, -10388.60, 19043.60, 14150.38, 17492.88, -11324.89, 16731.78, 44334.10, 28115.57, -8011.98, 3763.59, 24164.74, 27813.57, -25134.36, -14585.92, 28055.48, -24421.07, 0.00, 0.00, 0.00
144, -10388.60, 19043.60, 14150.38, 17492.88, -11324.89, 16731.78, 44334.10, 28115.57, -8012.61, 3718.30, 24119.50, 27849.89, -25132.59, -14634.69, 28013.78, -24471.70, 0.00, 0.00, 0.00
145, -10398.41, 19036.78, 14149.08, 17480.96, -11329.00, 16704.87, 44303.75, 28100.34, -8012.61, 3718.30, 24119.50, 27849.89, -25132.59, -14634.69, 28013.78, -24471.70, 0.94, 0.16, -0.20
146, -10398.41, 19036.78, 14149.08, 17480.96, -11329.00, 16704.87, 44303.75, 28100.34, -7996.72, 3694.72, 24103.74, 27846.38, -25124.70, -14640.50, 28009.95, -24460.77, 0.00, 0.00, 0.00
147, -10392.91, 19040.29, 14153.62, 17485.75, -11325.63, 16706.39, 44356.84, 28126.56, -7996.72, 3694.72, 24103.74, 27846.38, -25124.70, -14640.50, 28009.95, -24460.77, 0.00, 0.00, 0.00
148, -10392.91, 19040.29, 14153.62, 17485.75, -11325.63, 16706.39, 44356.84, 28126.56, -8021.35, 3652.36, 24061.67, 27722.49, -25118.22, -14670.50, 27961.34, -24488.41, 0.00, 0.00, 0.00
149, -10388.06, 19042.57, 14156.25, 17487.38, -11319.15, 16649.99, 44283.54, 28083.49, -8021.35, 3652.36, 24061.67, 27722.49, -25118.22, -14670.50, 27961.34, -24488.41, 0.00, 0.00, 0.00
150, -10388.06, 19042.57, 14156.25, 17487.38, -11319.15, 16649.99, 44283.54, 28083.49, -8020.41, 3612.35, 24020.57, 27490.05, -25109.97, -14677.07, 27906.38, -24484.66, 0.00, 0.00, 0.00
151, -10393.02, 19034.97, 14150.75, 17487.31, -11322.23, 16627.51, 44292.77, 28082.08, -8020.41, 3612.35, 24020.57, 27490.05, -25109.97, -14677.07, 27906.38, -24484.66, 0.00, 0.00, 0.00
152, -10393.02, 19034.97, 14150.75, 17487.31, -11322.23, 16627.51, 44292.77, 28082.08, -8004.05, 3571.70, 23988.38, 27259.61, -25123.72, -14704.76, 27861.34, -24508.80, 0.00, 0.00, 0.00
153, -10382.03, 19046.55, 14161.71, 17486.08, -11316.11, 16573.59, 44207.97, 28030.58, -8004.05, 3571.70, 23988.38, 27259.61, -25123.72, -14704.76, 27861.34, -24508.80, 0.00, 0.00, 0.00
154, -10382.03, 19046.55, 14161.71, 17486.08, -11316.11, 16573.59, 44207.97, 28030.58, -8013.41, 3565.24, 23975.35, 27052.67, -25100.83, -14687.31, 27823.23, -24496.17, 0.94, 0.15, -0.20
155, -10382.47, 19052.80, 14162.85, 17493.44, -11313.00, 16572.61, 44222.66, 28034.90, -8013.41, 3565.24, 23975.35, 27052.67, -25100.83, -14687.31, 27823.23, -24496.17, 0.00, 0.00, 0.00
156, -10382.47, 19052.80, 14162.85, 17493.44, -11313.00, 16572.61, 44222.66, 28034.90, -7973.31, 3581.04, 23985.59, 26963.31, -25090.90, -14679.37, 27828.28, -24496.21, 0.00, 0.00, 0.00
157, -10369.49, 19054.91, 14173.49, 17496.95, -11306.94, 16529.58, 44130.81, 27986.53, -7973.31, 3581.04, 23985.59, 26963.31, -25090.90, -14679.37, 27828.28, -24496.21, 0.00, 0.00, 0.00
158, -10369.49, 19054.91, 14173.49, 17496.95, -11306.94, 16529.58, 44130.81, 27986.53, -7985.23, 3565.55, 23971.15, 26723.99, -25091.82, -14690.21, 27777.16, -24499.39, 0.00, 0.00, 0.00
159, -10379.81, 19036.85, 14164.52, 17489.01, -11309.69, 16494.80, 44090.74, 27956.35, -7985.23, 3565.55, 23971.15, 26723.99, -25091.82, -14690.21, 27777.16, -24499.39, 0.00, 0.00, 0.00
160, -10379.81, 19036.85, 14164.52, 17489.01, -11309.69, 16494.80, 44090.74, 27956.35, -7987.84, 3557.28, 23971.37, 26563.33, -25082.90, -14685.12, 27777.85, -24493.18, 0.00, 0.00, 0.00
161, -10371.05, 19066.84, 14170.20, 17496.63, -11302.63, 16459.02, 43994.47, 27911.36, -7987.84, 3557.28, 23971.37, 26563.33, -25082.90, -14685.12, 27777.85, -24493.18, 0.00, 0.00, 0.00
162, -10371.05, 19066.84, 14170.20, 17496.63, -11302.63, 16459.02, 43994.47, 27911.36, -7974.07, 3565.42, 23963.28, 26388.54, -25072.93, -14671.66, 27732.39, -24493.04, 0.00, 0.00, 0.00
163, -10355.14, 19075.47, 14182.92, 17515.03, -11289.71, 16450.19, 43948.51, 27891.60, -7974.07, 3565.42, 23963.28, 26388.54, -25072.93, -14671.66, 27732.39, -24493.04, 0.00, 0.00, 0.00
164, -10355.14, 19075.47, 14182.92, 17515.03, -11289.71, 16450.19, 43948.51, 27891.60, -7968.73, 3589.20, 23991.40, 26412.12, -25066.99, -14643.86, 27772.42, -24464.01, 0.95, 0.15, -0.20
165, -10356.10, 19065.86, 14179.32, 17513.89, -11294.07, 16459.33, 43900.99, 27882.24, -7968.73, 3589.20, 23991.40, 26412.12, -25066.99, -14643.86, 27772.42, -24464.01, 0.00, 0.00, 0.00
166, -10356.10, 19065.86, 14179.32, 17513.89, -11294.07, 16459.33, 43900.99, 27882.24, -7955.21, 3590.16, 23974.39, 26336.59, -25062.83, -14647.19, 27728.57, -24472.81, 0.00, 0.00, 0.00
167, -10343.90, 19075.00, 14189.67, 17527.95, -11282.56, 16471.49, 43878.04, 27882.24, -7955.21, 3590.16, 23974.39, 26336.59, -25062.83, -14647.19, 27728.57, -24472.81, 0.00, 0.00, 0.00
168, -10343.90, 19075.00, 14189.67, 17527.95, -11282.56, 16471.49, 43878.04, 27882.24, -7951.72, 3607.97, 23997.10, 26430.65, -25072.93, -14631.32, 27778.52, -24453.48, 0.00, 0.00, 0.00
169, -10339.38, 19083.31, 14189.58, 17525.87, -11287.67, 16495.25, 43871.78, 27888.88, -7951.72, 3607.97, 23997.10, 26430.65, -25072.93, -14631.32, 27778.52, -24453.48, 0.00, 0.00, 0.00
170, -10339.38, 19083.31, 14189.58, 17525.87, -11287.67, 16495.25, 43871.78, 27888.88, -7949.22, 3597.07, 23972.69, 26365.80, -25083.69, -14637.87, 27731.45, -24468.83, 0.00, 0.00, 0.00
171, -10356.12, 19061.86, 14189.02, 17526.49, -11292.12, 16520.89, 43872.25, 27900.07, -7949.22, 3597.07, 23972.69, 26365.80, -25083.69, -14637.87, 27731.45, -24468.83, 0.00, 0.00, 0.00
172, -10356.12, 19061.86, 14189.02, 17526.49, -11292.12, 16520.89, 43872.25, 27900.07, -7949.49, 3601.00, 23981.97, 26452.69, -25117.91, -14636.55, 27775.39, -24457.21, 0.00, 0.00, 0.00
173, -10339.94, 19073.95, 14198.48, 17529.98, -11286.60, 16528.20, 43859.73, 27897.41, -7949.49, 3601.00, 23981.97, 26452.69, -25117.91, -14636.55, 27775.39, -24457.21, 0.00, 0.00, 0.00
174, -10339.94, 19073.95, 14198.48, 17529.98, -11286.60, 16528.20, 43859.73, 27897.41, -7925.55, 3590.87, 23952.42, 26376.15, -25141.02, -14636.82, 27716.65, -24468.12, 0.94, 0.16, -0.19
175, -10339.67, 19086.65, 14198.52, 17537.18, -11285.55, 16546.21, 43851.37, 27902.20, -7925.55, 3590.87, 23952.42, 26376.15, -25141.02, -14636.82, 27716.65, -24468.12, 0.00, 0.00, 0.00
176, -10339.67, 19086.65, 14198.52, 17537.18, -11285.55, 16546.21, 43851.37, 27902.20, -7989.03, 3608.02, 23972.76, 26469.49, -25166.83, -14620.05, 27765.69, -24439.60, 0.00, 0.00, 0.00
177, -10336.59, 19094.36, 14210.05, 17541.54, -11280.52, 16566.38, 43866.64, 27914.87, -7989.03, 3608.02, 23972.76, 26469.49, -25166.83, -14620.05, 27765.69, -24439.60, 0.00, 0.00, 0.00
178, -10336.59, 19094.36, 14210.05, 17541.54, -11280.52, 16566.38, 43866.64, 27914.87, -7934.76, 3609.27, 23950.47, 26397.43, -25168.71, -14612.54, 27714.84, -24444.83, 0.00, 0.00, 0.00
179, -10321.81, 19100.55, 14231.56, 17571.04, -11260.90, 16576.81, 43846.43, 27912.39, -7934.76, 3609.27, 23950.47, 26397.43, -25168.71, -14612.54, 27714.84, -24444.83, 0.00, 0.00, 0.00
180, -10321.81, 19100.55, 14231.56, 17571.04, -11260.90, 16576.81, 43846.43, 27912.39, -7939.79, 3632.25, 23984.45, 26485.18, -25179.33, -14583.26, 27773.03, -24407.21, 0.00, 0.00, 0.00
181, -10311.40, 19113.83, 14238.22, 17568.49, -11248.65, 16588.46, 43864.94, 27915.72, -7939.79, 3632.25, 23984.45, 26485.18, -25179.33, -14583.26, 27773.03, -24407.21, 0.00, 0.00, 0.00
182, -10311.40, 19113.83, 14238.22, 17568.49, -11248.65, 16588.46, 43864.94, 27915.72, -7926.42, 3618.19, 23968.47, 26432.26, -25177.96, -14590.30, 27736.77, -24421.40, 0.00, 0.00, 0.00
183, -10328.72, 19110.09, 14232.29, 17568.11, -11254.97, 16589.06, 43843.93, 27904.36, -7926.42, 3618.19, 23968.47, 26432.26, -25177.96, -14590.30, 27736.77, -24421.40, 0.00, 0.00, 0.00
184, -10328.72, 19110.09, 14232.29, 17568.11, -11254.97, 16589.06, 43843.93, 27904.36, -7968.08, 3628.00, 23992.65, 26513.84, -25200.67, -14583.89, 27792.09, -24404.91, 0.94, 0.16, -0.19
185, -10324.92, 19105.73, 14229.01, 17560.49, -11264.00, 16601.76, 43880.14, 27922.36, -7968.08, 3628.00, 23992.65, 26513.84, -25200.67, -14583.89, 27792.09, -24404.91, 0.00, 0.00, 0.00
186, -10324.92, 19105.73, 14229.01, 17560.49, -11264.00, 16601.76, 43880.14, 27922.36, -7942.18, 3615.24, 23962.28, 26455.90, -25193.88, -14594.84, 27747.39, -24433.32, 0.00, 0.00, 0.00
187, -10310.21, 19107.75, 14233.30, 17568.85, -11256.72, 16577.95, 43823.81, 27889.99, -7942.18, 3615.24, 23962.28, 26455.90, -25193.88, -14594.84, 27747.39, -24433.32, 0.00, 0.00, 0.00
188, -10310.21, 19107.75, 14233.30, 17568.85, -11256.72, 16577.95, 43823.81, 27889.99, -7929.19, 3617.81, 23973.07, 26501.79, -25216.30, -14589.25, 27777.81, -24413.92, 0.00, 0.00, 0.00
189, -10333.12, 19090.33, 14213.32, 17546.95, -11280.99, 16593.85, 43870.80, 27911.90, -7929.19, 3617.81, 23973.07, 26501.79, -25216.30, -14589.25, 27777.81, -24413.92, 0.00, 0.00, 0.00
190, -10333.12, 19090.33, 14213.32, 17546.95, -11280.99, 16593.85, 43870.80, 27911.90, -7979.91, 3599.99, 23958.63, 26480.58, -25228.50, -14612.07, 27749.35, -24444.45, 0.00, 0.00, 0.00
191, -10365.55, 19070.06, 14204.64, 17529.15, -11292.88, 16588.46, 43848.73, 27910.33, -7979.91, 3599.99, 23958.63, 26480.58, -25228.50, -14612.07, 27749.35, -24444.45, 0.00, 0.00, 0.00
192, -10365.55, 19070.06, 14204.64, 17529.15, -11292.88, 16588.46, 43848.73, 27910.33, -8001.07, 3604.31, 23975.17, 26525.04, -25238.45, -14606.44, 27777.83, -24429.27, 0.00, 0.00, 0.00
193, -10368.53, 19071.92, 14200.71, 17528.60, -11298.94, 16606.83, 43902.40, 27944.26, -8001.07, 3604.31, 23975.17, 26525.04, -25238.45, -14606.44, 27777.83, -24429.27, 0.00, 0.00, 0.00
194, -10368.53, 19071.92, 14200.71, 17528.60, -11298.94, 16606.83, 43902.40, 27944.26, -7971.30, 3607.55, 23967.37, 26531.43, -25241.91, -14618.15, 27768.17, -24449.34, 0.94, 0.16, -0.20
195, -10364.75, 19058.21, 14193.33, 17527.66, -11302.11, 16606.76, 43883.78, 27947.82, -7971.30, 3607.55, 23967.37, 26531.43, -25241.91, -14618.15, 27768.17, -24449.34, 0.00, 0.00, 0.00
196, -10364.75, 19058.21, 14193.33, 17527.66, -11302.11, 16606.76, 43883.78, 27947.82, -7996.90, 3626.95, 24000.36, 26596.27, -25252.24, -14613.32, 27806.98, -24431.75, 0.00, 0.00, 0.00
197, -10370.20, 19057.46, 14189.47, 17518.47, -11305.91, 16630.30, 43955.55, 27993.48, -7996.90, 3626.95, 24000.36, 26596.27, -25252.24, -14613.32, 27806.98, -24431.75, 0.00, 0.00, 0.00
198, -10370.20, 19057.46, 14189.47, 17518.47, -11305.91, 16630.30, 43955.55, 27993.48, -7997.81, 3622.75, 23998.69, 26630.47, -25241.89, -14622.20, 27803.65, -24447.02, 0.00, 0.00, 0.00
199, -10364.79, 19074.29, 14199.97, 17525.87, -11299.83, 16616.87, 43921.13, 27983.04, -7997.81, 3622.75, 23998.69, 26630.47, -25241.89, -14622.20, 27803.65, -24447.02, 0.00, 0.00, 0.00
200, -10364.79, 19074.29, 14199.97, 17525.87, -11299.83, 16616.87, 43921.13, 27983.04, -8002.84, 3625.59, 24010.20, 26646.21, -25240.01, -14608.18, 27814.49, -24426.88, 0.00, 0.00, 0.00
201, -10376.22, 19051.42, 14202.14, 17527.50, -11300.68, 16649.14, 43990.67, 28024.57, -8002.84, 3625.59, 24010.20, 26646.21, -25240.01, -14608.18, 27814.49, -24426.88, 0.00, 0.00, 0.00
202, -10376.22, 19051.42, 14202.14, 17527.50, -11300.68, 16649.14, 43990.67, 28024.57, -7981.72, 3619.28, 24007.58, 26691.83, -25239.48, -14608.45, 27829.73, -24432.69, 0.00, 0.00, 0.00
203, -10350.42, 19072.88, 14219.24, 17537.83, -11289.44, 16636.74, 43956.76, 28006.73, -7981.72, 3619.28, 24007.58, 26691.83, -25239.48, -14608.45, 27829.73, -24432.69, 0.00, 0.00, 0.00
204, -10350.42, 19072.88, 14219.24, 17537.83, -11289.44, 16636.74, 43956.76, 28006.73, -7968.93, 3616.36, 23998.04, 26661.65, -25224.57, -14596.38, 27815.31, -24421.47, 0.94, 0.16, -0.19
205, -10345.06, 19091.00, 14234.69, 17552.00, -11273.73, 16650.75, 43992.70, 28031.03, -7968.93, 3616.36, 23998.04, 26661.65, -25224.57, -14596.38, 27815.31, -24421.47, 0.00, 0.00, 0.00
206, -10345.06, 19091.00, 14234.69, 17552.00, -11273.73, 16650.75, 43992.70, 28031.03, -7941.98, 3621.12, 23998.75, 26692.83, -25203.24, -14586.50, 27829.96, -24413.71, 0.00, 0.00, 0.00
207, -10320.54, 19122.39, 14253.01, 17561.25, -11262.95, 16623.37, 43928.69, 27992.88, -7941.98, 3621.12, 23998.75, 26692.83, -25203.24, -14586.50, 27829.96, -24413.71, 0.00, 0.00, 0.00
208, -10320.54, 19122.39, 14253.01, 17561.25, -11262.95, 16623.37, 43928.69, 27992.88, -7981.70, 3625.30, 23992.74, 26639.86, -25198.37, -14579.84, 27802.19, -24401.58, 0.00, 0.00, 0.00
209, -10326.91, 19090.85, 14242.15, 17559.24, -11273.12, 16646.77, 43966.10, 28024.79, -7981.70, 3625.30, 23992.74, 26639.86, -25198.37, -14579.84, 27802.19, -24401.58, 0.00, 0.00, 0.00
210, -10326.91, 19090.85, 14242.15, 17559.24, -11273.12, 16646.77, 43966.10, 28024.79, -7925.32, 3637.10, 24011.09, 26722.58, -25215.07, -14587.75, 27842.11, -24405.00, 0.00, 0.00, 0.00
211, -10323.24, 19077.71, 14232.67, 17547.48, -11277.15, 16644.85, 43944.09, 28015.92, -7925.32, 3637.10, 24011.09, 26722.58, -25215.07, -14587.75, 27842.11, -24405.00, 0.00, 0.00, 0.00
212, -10323.24, 19077.71, 14232.67, 17547.48, -11277.15, 16644.85, 43944.09, 28015.92, -7982.10, 3640.05, 24015.41, 26699.83, -25206.80, -14593.57, 27830.92, -24408.78, 0.00, 0.00, 0.00
213, -10338.17, 19102.61, 14244.59, 17556.63, -11270.46, 16661.64, 43975.67, 28038.12, -7982.10, 3640.05, 24015.41, 26699.83, -25206.80, -14593.57, 27830.92, -24408.78, 0.00, 0.00, 0.00
214, -10338.17, 19102.61, 14244.59, 17556.63, -11270.46, 16661.64, 43975.67, 28038.12, -7963.70, 3666.42, 24048.82, 26807.88, -25200.76, -14583.04, 27886.08, -24391.65, 0.94, 0.15, -0.20
215, -10323.00, 19116.91, 14257.51, 17559.37, -11267.20, 16640.56, 43944.27, 28014.49, -7963.70, 3666.42, 24048.82, 26807.88, -25200.76, -14583.04, 27886.08, -24391.65, 0.00, 0.00, 0.00
216, -10323.00, 19116.91, 14257.51, 17559.37, -11267.20, 16640.56, 43944.27, 28014.49, -7960.15, 3674.11, 24044.40, 26771.31, -25181.52, -14584.33, 27853.11, -24399.61, 0.00, 0.00, 0.00
217, -10333.73, 19103.59, 14245.21, 17557.90, -11276.81, 16654.04, 43965.54, 28032.33, -7960.15, 3674.11, 24044.40, 26771.31, -25181.52, -14584.33, 27853.11, -24399.61, 0.00, 0.00, 0.00
218, -10333.73, 19103.59, 14245.21, 17557.90, -11276.81, 16654.04, 43965.54, 28032.33, -7957.11, 3698.65, 24090.31, 26925.76, -25201.21, -14583.93, 27933.22, -24385.26, 0.00, 0.00, 0.00
219, -10334.73, 19093.98, 14224.27, 17530.79, -11291.79, 16645.05, 43968.25, 28030.41, -7957.11, 3698.65, 24090.31, 26925.76, -25201.21, -14583.93, 27933.22, -24385.26, 0.00, 0.00, 0.00
220, -10334.73, 19093.98, 14224.27, 17530.79, -11291.79, 16645.05, 43968.25, 28030.41, -7949.69, 3677.78, 24070.26, 26900.26, -25196.07, -14609.95, 27896.85, -24415.46, 0.00, 0.00, 0.00
221, -10338.20, 19069.21, 14224.49, 17529.76, -11293.33, 16633.83, 43959.80, 28026.56, -7949.69, 3677.78, 24070.26, 26900.26, -25196.07, -14609.95, 27896.85, -24415.46, 0.00, 0.00, 0.00
222, -10338.20, 19069.21, 14224.49, 17529.76, -11293.33, 16633.83, 43959.80, 28026.56, -7974.23, 3703.64, 24112.75, 27047.98, -25178.61, -14591.46, 27974.93, -24389.69, 0.00, 0.00, 0.00
223, -10334.84, 19096.44, 14236.14, 17536.02, -11286.74, 16631.17, 43965.23, 28026.83, -7974.23, 3703.64, 24112.75, 27047.98, -25178.61, -14591.46, 27974.93, -24389.69, 0.00, 0.00, 0.00
224, -10334.84, 19096.44, 14236.14, 17536.02, -11286.74, 16631.17, 43965.23, 28026.83, -7953.62, 3709.67, 24103.85, 27033.79, -25171.71, -14601.05, 27946.32, -24405.09, 0.94, 0.15, -0.19
225, -10339.58, 19103.95, 14243.54, 17541.96, -11285.04, 16620.67, 43944.91, 28023.19, -7953.62, 3709.67, 24103.85, 27033.79, -25171.71, -14601.05, 27946.32, -24405.09, 0.00, 0.00, 0.00
226, -10339.58, 19103.95, 14243.54, 17541.96, -11285.04, 16620.67, 43944.91, 28023.19, -7983.28, 3726.06, 24132.53, 27162.51, -25167.33, -14582.50, 28008.90, -24381.62, 0.00, 0.00, 0.00
227, -10343.22, 19081.30, 14233.68, 17528.66, -11292.62, 16629.38, 43973.77, 28035.12, -7983.28, 3726.06, 24132.53, 27162.51, -25167.33, -14582.50, 28008.90, -24381.62, 0.00, 0.00, 0.00
228, -10343.22, 19081.30, 14233.68, 17528.66, -11292.62, 16629.38, 43973.77, 28035.12, -7980.27, 3706.63, 24110.87, 27146.24, -25172.67, -14608.21, 27975.26, -24418.65, 0.00, 0.00, 0.00
229, -10325.81, 19083.83, 14239.80, 17530.47, -11286.38, 16623.57, 43956.16, 28037.36, -7980.27, 3706.63, 24110.87, 27146.24, -25172.67, -14608.21, 27975.26, -24418.65, 0.00, 0.00, 0.00
230, -10325.81, 19083.83, 14239.80, 17530.47, -11286.38, 16623.57, 43956.16, 28037.36, -7949.96, 3711.15, 24118.89, 27244.45, -25179.20, -14599.15, 28016.99, -24397.24, 0.00, 0.00, 0.00
231, -10341.44, 19087.21, 14230.30, 17521.76, -11290.94, 16634.77, 43993.30, 28055.24, -7949.96, 3711.15, 24118.89, 27244.45, -25179.20, -14599.15, 28016.99, -24397.24, 0.00, 0.00, 0.00
232, -10341.44, 19087.21, 14230.30, 17521.76, -11290.94, 16634.77, 43993.30, 28055.24, -7960.35, 3688.98, 24085.61, 27208.58, -25176.80, -14618.78, 27968.40, -24422.65, 0.00, 0.00, 0.00
233, -10334.33, 19089.28, 14235.11, 17526.76, -11291.72, 16635.38, 43983.71, 28056.29, -7960.35, 3688.98, 24085.61, 27208.58, -25176.80, -14618.78, 27968.40, -24422.65, 0.00, 0.00, 0.00
234, -10334.33, 19089.28, 14235.11, 17526.76, -11291.72, 16635.38, 43983.71, 28056.29, -7967.19, 3690.99, 24091.11, 27278.13, -25177.00, -14611.56, 27998.49, -24399.83, 0.94, 0.16, -0.19
235, -10330.01, 19101.73, 14242.82, 17530.94, -11289.17, 16652.38, 44032.27, 28078.51, -7967.19, 3690.99, 24091.11, 27278.13, -25177.00, -14611.56, 27998.49, -24399.83, 0.00, 0.00, 0.00
236, -10330.01, 19101.73, 14242.82, 17530.94, -11289.17, 16652.38, 44032.27, 28078.51, -7945.11, 3670.29, 24049.11, 27222.77, -25162.47, -14624.14, 27938.16, -24422.43, 0.00, 0.00, 0.00
237, -10311.73, 19113.51, 14253.71, 17537.83, -11277.28, 16639.42, 43989.06, 28053.20, -7945.11, 3670.29, 24049.11, 27222.77, -25162.47, -14624.14, 27938.16, -24422.43, 0.00, 0.00, 0.00
238, -10311.73, 19113.51, 14253.71, 17537.83, -11277.28, 16639.42, 43989.06, 28053.20, -7949.04, 3673.91, 24055.68, 27266.85, -25168.85, -14617.93, 27956.11, -24401.06, 0.00, 0.00, 0.00
239, -10321.34, 19103.14, 14234.42, 17518.98, -11293.20, 16672.75, 44061.72, 28088.03, -7949.04, 3673.91, 24055.68, 27266.85, -25168.85, -14617.93, 27956.11, -24401.06, 0.00, 0.00, 0.00
240, -10321.34, 19103.14, 14234.42, 17518.98, -11293.20, 16672.75, 44061.72, 28088.03, -7950.34, 3671.52, 24039.26, 27271.88, -25168.51, -14636.44, 27929.80, -24422.21, 0.00, 0.00, 0.00
241, -10311.53, 19105.67, 14248.21, 17526.87, -11285.10, 16664.79, 44036.91, 28071.73, -7950.34, 3671.52, 24039.26, 27271.88, -25168.51, -14636.44, 27929.80, -24422.21, 0.00, 0.00, 0.00
242, -10311.53, 19105.67, 14248.21, 17526.87, -11285.10, 16664.79, 44036.91, 28071.73, -7935.92, 3674.78, 24049.09, 27315.44, -25162.70, -14631.32, 27946.41, -24405.00, 0.00, 0.00, 0.00
243, -10319.82, 19102.05, 14233.19, 17513.40, -11293.93, 16680.70, 44099.01, 28093.53, -7935.92, 3674.78, 24049.09, 27315.44, -25162.70, -14631.32, 27946.41, -24405.00, 0.00, 0.00, 0.00
244, -10319.82, 19102.05, 14233.19, 17513.40, -11293.93, 16680.70, 44099.01, 28093.53, -7922.24, 3672.01, 24046.81, 27342.53, -25154.21, -14649.04, 27934.31, -24425.27, 0.95, 0.16, -0.19
245, -10292.96, 19119.44, 14251.34, 17531.99, -11280.39, 16663.31, 44063.49, 28075.89, -7922.24, 3672.01, 24046.81, 27342.53, -25154.21, -14649.04, 27934.31, -24425.27, 0.00, 0.00, 0.00
246, -10292.96, 19119.44, 14251.34, 17531.99, -11280.39, 16663.31, 44063.49, 28075.89, -7922.78, 3696.04, 24069.74, 27395.30, -25149.56, -14634.04, 27952.93, -24403.97, 0.00, 0.00, 0.00
247, -10307.35, 19095.52, 14241.10, 17530.05, -11287.09, 16692.17, 44144.09, 28111.88, -7922.78, 3696.04, 24069.74, 27395.30, -25149.56, -14634.04, 27952.93, -24403.97, 0.00, 0.00, 0.00
248, -10307.35, 19095.52, 14241.10, 17530.05, -11287.09, 16692.17, 44144.09, 28111.88, -7940.64, 3707.60, 24090.11, 27497.94, -25145.85, -14634.65, 27980.92, -24411.72, 0.00, 0.00, 0.00
249, -10308.11, 19099.74, 14241.88, 17530.65, -11285.13, 16700.53, 44149.50, 28116.35, -7940.64, 3707.60, 24090.11, 27497.94, -25145.85, -14634.65, 27980.92, -24411.72, 0.00, 0.00, 0.00
250, -10308.11, 19099.74, 14241.88, 17530.65, -11285.13, 16700.53, 44149.50, 28116.35, -7950.49, 3712.09, 24093.08, 27549.13, -25142.29, -14633.31, 27988.12, -24403.57, 0.00, 0.00, 0.00
251, -10308.07, 19094.33, 14234.75, 17526.61, -11291.32, 16727.17, 44229.54, 28153.65, -7950.49, 3712.09, 24093.08, 27549.13, -25142.29, -14633.31, 27988.12, -24403.57, 0.00, 0.00, 0.00
252, -10308.07, 19094.33, 14234.75, 17526.61, -11291.32, 16727.17, 44229.54, 28153.65, -7933.77, 3719.55, 24104.14, 27648.17, -25141.17, -14644.24, 28013.11, -24411.59, 0.00, 0.00, 0.00
253, -10288.51, 19122.16, 14246.69, 17534.59, -11282.00, 16705.80, 44209.00, 28130.09, -7933.77, 3719.55, 24104.14, 27648.17, -25141.17, -14644.24, 28013.11, -24411.59, 0.00, 0.00, 0.00
254, -10288.51, 19122.16, 14246.69, 17534.59, -11282.00, 16705.80, 44209.00, 28130.09, -7901.03, 3724.29, 24095.18, 27634.76, -25131.23, -14636.37, 27992.70, -24407.61, 0.94, 0.16, -0.20
255, -10278.20, 19118.12, 14240.16, 17540.24, -11291.36, 16725.05, 44266.00, 28153.94, -7901.03, 3724.29, 24095.18, 27634.76, -25131.23, -14636.37, 27992.70, -24407.61, 0.00, 0.00, 0.00
0, -10278.20, 19118.12, 14240.16, 17540.24, -11291.36, 16725.05, 44266.00, 28153.94, -7873.47, 3726.44, 24102.73, 27706.17, -25131.41, -14641.80, 28020.66, -24413.29, 0.00, 0.00, 0.00
1, -10268.12, 19147.82, 14250.87, 17545.98, -11284.50, 16703.70, 44240.89, 28133.31, -7873.47, 3726.44, 24102.73, 27706.17, -25131.41, -14641.80, 28020.66, -24413.29, 0.00, 0.00, 0.00
2, -10268.12, 19147.82, 14250.87, 17545.98, -11284.50, 16703.70, 44240.89, 28133.31, -7887.62, 3711.06, 24089.12, 27642.00, -25111.04, -14640.55, 27988.36, -24412.64, 0.00, 0.00, 0.00
3, -10273.67, 19126.34, 14251.67, 17552.64, -11277.10, 16716.36, 44287.10, 28153.74, -7887.62, 3711.06, 24089.12, 27642.00, -25111.04, -14640.55, 27988.36, -24412.64, 0.00, 0.00, 0.00
4, -10273.67, 19126.34, 14251.67, 17552.64, -11277.10, 16716.36, 44287.10, 28153.74, -7909.86, 3728.41, 24114.98, 27721.46, -25110.96, -14634.40, 28039.77, -24401.58, 0.00, 0.00, 0.00
5, -10265.46, 19131.33, 14257.78, 17551.28, -11271.22, 16686.65, 44258.98, 28126.32, -7909.86, 3728.41, 24114.98, 27721.46, -25110.96, -14634.40, 28039.77, -24401.58, 0.00, 0.00, 0.00
6, -10265.46, 19131.33, 14257.78, 17551.28, -11271.22, 16686.65, 44258.98, 28126.32, -7906.39, 3721.61, 24099.43, 27644.48, -25109.79, -14637.62, 27998.20, -24419.26, 0.00, 0.00, 0.00
7, -10268.70, 19128.42, 14239.40, 17544.93, -11283.63, 16688.08, 44287.36, 28139.19, -7906.39, 3721.61, 24099.43, 27644.48, -25109.79, -14637.62, 27998.20, -24419.26, 0.00, 0.00, 0.00
8, -10268.70, 19128.42, 14239.40, 17544.93, -11283.63, 16688.08, 44287.36, 28139.19, -7862.34, 3736.00, 24118.92, 27715.85, -25109.61, -14639.70, 28045.60, -24417.38, 0.94, 0.16, -0.19
9, -10268.99, 19144.11, 14259.23, 17553.23, -11278.24, 16667.54, 44271.27, 28125.11, -7862.34, 3736.00, 24118.92, 27715.85, -25109.61, -14639.70, 28045.60, -24417.38, 0.00, 0.00, 0.00
10, -10268.99, 19144.11, 14259.23, 17553.23, -11278.24, 16667.54, 44271.27, 28125.11, -7897.09, 3724.72, 24092.01, 27602.97, -25085.00, -14631.16, 27989.48, -24421.56, 0.00, 0.00, 0.00
11, -10251.76, 19156.63, 14275.37, 17573.99, -11260.25, 16664.16, 44271.03, 28114.98, -7897.09, 3724.72, 24092.01, 27602.97, -25085.00, -14631.16, 27989.48, -24421.56, 0.00, 0.00, 0.00
12, -10251.76, 19156.63, 14275.37, 17573.99, -11260.25, 16664.16, 44271.03, 28114.98, -7871.46, 3730.06, 24099.22, 27622.51, -25072.67, -14614.60, 28024.57, -24395.25, 0.00, 0.00, 0.00
13, -10246.84, 19147.64, 14269.93, 17571.09, -11260.45, 16662.82, 44271.54, 28115.01, -7871.46, 3730.06, 24099.22, 27622.51, -25072.67, -14614.60, 28024.57, -24395.25, 0.00, 0.00, 0.00
14, -10246.84, 19147.64, 14269.93, 17571.09, -11260.45, 16662.82, 44271.54, 28115.01, -7870.25, 3696.98, 24050.88, 27471.34, -25087.31, -14640.48, 27957.52, -24427.55, 0.00, 0.00, 0.00
15, -10257.10, 19156.83, 14255.63, 17559.51, -11267.65, 16652.59, 44265.59, 28104.19, -7870.25, 3696.98, 24050.88, 27471.34, -25087.31, -14640.48, 27957.52, -24427.55, 0.00, 0.00, 0.00
16, -10257.10, 19156.83, 14255.63, 17559.51, -11267.65, 16652.59, 44265.59, 28104.19, -7913.37, 3679.79, 24034.18, 27431.22, -25079.01, -14650.50, 27961.21, -24428.80, 0.00, 0.00, 0.00
17, -10259.38, 19147.17, 14259.14, 17554.10, -11266.98, 16623.17, 44244.88, 28079.00, -7913.37, 3679.79, 24034.18, 27431.22, -25079.01, -14650.50, 27961.21, -24428.80, 0.00, 0.00, 0.00
18, -10259.38, 19147.17, 14259.14, 17554.10, -11266.98, 16623.17, 44244.88, 28079.00, -7858.16, 3635.69, 23970.95, 27206.10, -25071.79, -14662.21, 27859.08, -24454.98, 0.94, 0.16, -0.19
19, -10245.70, 19150.66, 14267.90, 17574.93, -11253.92, 16598.32, 44196.66, 28046.25, -7858.16, 3635.69, 23970.95, 27206.10, -25071.79, -14662.21, 27859.08, -24454.98, 0.00, 0.00, 0.00
20, -10245.70, 19150.66, 14267.90, 17574.93, -11253.92, 16598.32, 44196.66, 28046.25, -7865.35, 3628.58, 23971.44, 27133.63, -25066.94, -14648.33, 27876.78, -24426.39, 0.00, 0.00, 0.00
21, -10242.31, 19154.86, 14282.52, 17583.80, -11242.46, 16587.86, 44190.05, 28029.96, -7865.35, 3628.58, 23971.44, 27133.63, -25066.94, -14648.33, 27876.78, -24426.39, 0.00, 0.00, 0.00
22, -10242.31, 19154.86, 14282.52, 17583.80, -11242.46, 16587.86, 44190.05, 28029.96, -7861.04, 3603.91, 23925.51, 26896.03, -25045.17, -14652.15, 27794.71, -24440.18, 0.00, 0.00, 0.00
23, -10249.95, 19154.01, 14286.81, 17597.44, -11235.93, 16569.68, 44133.65, 27998.33, -7861.04, 3603.91, 23925.51, 26896.03, -25045.17, -14652.15, 27794.71, -24440.18, 0.00, 0.00, 0.00
24, -10249.95, 19154.01, 14286.81, 17597.44, -11235.93, 16569.68, 44133.65, 27998.33, -7862.52, 3609.45, 23939.77, 26800.14, -25055.28, -14642.47, 27815.54, -24416.82, 0.00, 0.00, 0.00
25, -10250.89, 19149.41, 14268.33, 17587.29, -11250.86, 16572.03, 44145.88, 27996.23, -7862.52, 3609.45, 23939.77, 26800.14, -25055.28, -14642.47, 27815.54, -24416.82, 0.00, 0.00, 0.00
26, -10250.89, 19149.41, 14268.33, 17587.29, -11250.86, 16572.03, 44145.88, 27996.23, -7863.23, 3578.72, 23900.70, 26564.67, -25047.28, -14667.53, 27742.52, -24451.82, 0.00, 0.00, 0.00
27, -10255.63, 19170.49, 14282.16, 17593.13, -11235.15, 16532.02, 44059.02, 27941.56, -7863.23, 3578.72, 23900.70, 26564.67, -25047.28, -14667.53, 27742.52, -24451.82, 0.00, 0.00, 0.00
28, -10255.63, 19170.49, 14282.16, 17593.13, -11235.15, 16532.02, 44059.02, 27941.56, -7894.21, 3585.29, 23919.99, 26433.71, -25034.38, -14645.31, 27763.21, -24415.90, 0.94, 0.16, -0.19
29, -10251.09, 19155.82, 14277.65, 17587.96, -11239.06, 16528.15, 44065.79, 27939.30, -7894.21, 3585.29, 23919.99, 26433.71, -25034.38, -14645.31, 27763.21, -24415.90, 0.00, 0.00, 0.00
30, -10251.09, 19155.82, 14277.65, 17587.96, -11239.06, 16528.15, 44065.79, 27939.30, -7886.79, 3573.44, 23908.72, 26264.69, -25029.01, -14658.03, 27722.53, -24436.45, 0.00, 0.00, 0.00
31, -10251.83, 19169.15, 14296.06, 17601.91, -11227.28, 16505.13, 43992.88, 27904.63, -7886.79, 3573.44, 23908.72, 26264.69, -25029.01, -14658.03, 27722.53, -24436.45, 0.00, 0.00, 0.00
32, -10251.83, 19169.15, 14296.06, 17601.91, -11227.28, 16505.13, 43992.88, 27904.63, -7879.35, 3605.36, 23944.13, 26270.56, -25013.81, -14618.13, 27762.18, -24392.97, 0.00, 0.00, 0.00
33, -10247.02, 19145.34, 14283.59, 17603.27, -11234.54, 16541.18, 44039.80, 27936.01, -7879.35, 3605.36, 23944.13, 26270.56, -25013.81, -14618.13, 27762.18, -24392.97, 0.00, 0.00, 0.00
34, -10247.02, 19145.34, 14283.59, 17603.27, -11234.54, 16541.18, 44039.80, 27936.01, -7827.58, 3622.84, 23950.92, 26278.10, -25028.28, -14635.61, 27767.30, -24410.85, 0.00, 0.00, 0.00
35, -10243.27, 19155.49, 14288.37, 17604.77, -11228.26, 16535.28, 43988.07, 27916.05, -7827.58, 3622.84, 23950.92, 26278.10, -25028.28, -14635.61, 27767.30, -24410.85, 0.00, 0.00, 0.00
36, -10243.27, 19155.49, 14288.37, 17604.77, -11228.26, 16535.28, 43988.07, 27916.05, -7874.94, 3623.71, 23964.31, 26272.75, -25023.45, -14627.61, 27792.58, -24393.71, 0.00, 0.00, 0.00
37, -10244.74, 19167.27, 14290.18, 17605.62, -11225.31, 16555.85, 44027.57, 27940.10, -7874.94, 3623.71, 23964.31, 26272.75, -25023.45, -14627.61, 27792.58, -24393.71, 0.00, 0.00, 0.00
38, -10244.74, 19167.27, 14290.18, 17605.62, -11225.31, 16555.85, 44027.57, 27940.10, -7840.12, 3617.83, 23955.88, 26236.19, -25006.64, -14628.86, 27785.65, -24407.95, 0.95, 0.16, -0.20
39, -10232.11, 19178.06, 14302.66, 17613.87, -11217.40, 16535.31, 43962.55, 27906.96, -7840.12, 3617.83, 23955.88, 26236.19, -25006.64, -14628.86, 27785.65, -24407.95, 0.00, 0.00, 0.00
40, -10232.11, 19178.06, 14302.66, 17613.87, -11217.40, 16535.31, 43962.55, 27906.96, -7885.36, 3631.53, 23972.76, 26210.84, -25010.15, -14609.84, 27797.43, -24385.19, 0.00, 0.00, 0.00
41, -10233.77, 19183.21, 14306.68, 17626.32, -11213.98, 16557.30, 43994.78, 27932.08, -7885.36, 3631.53, 23972.76, 26210.84, -25010.15, -14609.84, 27797.43, -24385.19, 0.00, 0.00, 0.00
42, -10233.77, 19183.21, 14306.68, 17626.32, -11213.98, 16557.30, 43994.78, 27932.08, -7819.20, 3636.32, 23980.40, 26204.80, -25016.14, -14604.36, 27802.75, -24391.74, 0.00, 0.00, 0.00
43, -10215.01, 19194.25, 14321.48, 17641.29, -11202.36, 16541.30, 43929.69, 27905.79, -7819.20, 3636.32, 23980.40, 26204.80, -25016.14, -14604.36, 27802.75, -24391.74, 0.00, 0.00, 0.00
44, -10215.01, 19194.25, 14321.48, 17641.29, -11202.36, 16541.30, 43929.69, 27905.79, -7852.21, 3644.65, 23998.66, 26170.96, -25043.21, -14593.63, 27808.01, -24377.59, 0.00, 0.00, 0.00
45, -10237.57, 19176.70, 14309.81, 17625.42, -11212.04, 16559.36, 43958.01, 27923.74, -7852.21, 3644.65, 23998.66, 26170.96, -25043.21, -14593.63, 27808.01, -24377.59, 0.00, 0.00, 0.00
46, -10237.57, 19176.70, 14309.81, 17625.42, -11212.04, 16559.36, 43958.01, 27923.74, -7855.86, 3640.29, 24005.79, 26205.81, -25070.83, -14606.01, 27824.39, -24391.50, 0.00, 0.00, 0.00
47, -10226.39, 19176.25, 14303.73, 17615.70, -11215.95, 16541.61, 43897.62, 27892.99, -7855.86, 3640.29, 24005.79, 26205.81, -25070.83, -14606.01, 27824.39, -24391.50, 0.00, 0.00, 0.00
48, -10226.39, 19176.25, 14303.73, 17615.70, -11215.95, 16541.61, 43897.62, 27892.99, -7837.59, 3652.21, 24010.06, 26190.41, -25113.39, -14608.12, 27813.41, -24390.80, 0.94, 0.17, -0.20
49, -10242.44, 19171.45, 14294.52, 17608.66, -11228.20, 16561.46, 43929.36, 27918.65, -7837.59, 3652.21, 24010.06, 26190.41, -25113.39, -14608.12, 27813.41, -24390.80, 0.00, 0.00, 0.00
50, -10242.44, 19171.45, 14294.52, 17608.66, -11228.20, 16561.46, 43929.36, 27918.65, -7870.16, 3666.49, 24037.27, 26285.96, -25131.59, -14603.22, 27859.01, -24382.04, 0.00, 0.00, 0.00
51, -10234.86, 19170.04, 14307.31, 17616.15, -11220.71, 16552.72, 43890.62, 27902.96, -7870.16, 3666.49, 24037.27, 26285.96, -25131.59, -14603.22, 27859.01, -24382.04, 0.00, 0.00, 0.00
52, -10234.86, 19170.04, 14307.31, 17616.15, -11220.71, 16552.72, 43890.62, 27902.96, -7861.33, 3680.51, 24048.55, 26283.21, -25145.38, -14585.21, 27851.68, -24381.46, 0.00, 0.00, 0.00
53, -10237.79, 19160.09, 14302.03, 17613.91, -11227.75, 16576.05, 43920.89, 27927.27, -7861.33, 3680.51, 24048.55, 26283.21, -25145.38, -14585.21, 27851.68, -24381.46, 0.00, 0.00, 0.00
54, -10237.79, 19160.09, 14302.03, 17613.91, -11227.75, 16576.05, 43920.89, 27927.27, -7876.87, 3687.93, 24074.68, 26414.06, -25161.92, -14588.65, 27907.34, -24383.23, 0.00, 0.00, 0.00
55, -10225.61, 19161.59, 14308.83, 17608.95, -11217.71, 16562.82, 43885.59, 27910.00, -7876.87, 3687.93, 24074.68, 26414.06, -25161.92, -14588.65, 27907.34, -24383.23, 0.00, 0.00, 0.00
56, -10225.61, 19161.59, 14308.83, 17608.95, -11217.71, 16562.82, 43885.59, 27910.00, -7848.28, 3679.54, 24056.06, 26374.39, -25161.29, -14595.44, 27866.14, -24392.62, 0.00, 0.00, 0.00
57, -10240.99, 19151.82, 14298.12, 17606.36, -11228.26, 16581.89, 43902.31, 27926.16, -7848.28, 3679.54, 24056.06, 26374.39, -25161.29, -14595.44, 27866.14, -24392.62, 0.00, 0.00, 0.00
58, -10240.99, 19151.82, 14298.12, 17606.36, -11228.26, 16581.89, 43902.31, 27926.16, -7855.48, 3687.14, 24075.00, 26495.69, -25181.36, -14597.72, 27923.12, -24383.18, 0.94, 0.17, -0.20
59, -10241.26, 19173.97, 14306.12, 17602.69, -11227.06, 16578.06, 43894.02, 27922.87, -7855.48, 3687.14, 24075.00, 26495.69, -25181.36, -14597.72, 27923.12, -24383.18, 0.00, 0.00, 0.00
60, -10241.26, 19173.97, 14306.12, 17602.69, -11227.06, 16578.06, 43894.02, 27922.87, -7868.80, 3667.68, 24035.90, 26418.67, -25173.14, -14611.13, 27861.16, -24404.60, 0.00, 0.00, 0.00
61, -10244.41, 19158.04, 14306.05, 17607.05, -11223.91, 16576.19, 43881.84, 27917.87, -7868.80, 3667.68, 24035.90, 26418.67, -25173.14, -14611.13, 27861.16, -24404.60, 0.00, 0.00, 0.00
62, -10244.41, 19158.04, 14306.05, 17607.05, -11223.91, 16576.19, 43881.84, 27917.87, -7876.49, 3670.42, 24051.82, 26514.24, -25179.26, -14604.94, 27908.28, -24388.12, 0.00, 0.00, 0.00
63, -10247.80, 19164.70, 14302.72, 17596.52, -11230.81, 16581.73, 43884.96, 27920.12, -7876.49, 3670.42, 24051.82, 26514.24, -25179.26, -14604.94, 27908.28, -24388.12, 0.00, 0.00, 0.00
64, -10247.80, 19164.70, 14302.72, 17596.52, -11230.81, 16581.73, 43884.96, 27920.12, -7874.61, 3661.30, 24037.58, 26473.20, -25182.19, -14618.76, 27871.42, -24404.93, 0.00, 0.00, 0.00
65, -10254.02, 19151.31, 14300.06, 17592.21, -11232.58, 16580.70, 43873.25, 27917.66, -7874.61, 3661.30, 24037.58, 26473.20, -25182.19, -14618.76, 27871.42, -24404.93, 0.00, 0.00, 0.00
66, -10254.02, 19151.31, 14300.06, 17592.21, -11232.58, 16580.70, 43873.25, 27917.66, -7862.52, 3680.37, 24064.07, 26576.36, -25174.61, -14609.61, 27927.41, -24381.15, 0.00, 0.00, 0.00
67, -10246.58, 19157.77, 14310.91, 17596.68, -11224.20, 16578.78, 43873.90, 27921.66, -7862.52, 3680.37, 24064.07, 26576.36, -25174.61, -14609.61, 27927.41, -24381.15, 0.00, 0.00, 0.00
68, -10246.58, 19157.77, 14310.91, 17596.68, -11224.20, 16578.78, 43873.90, 27921.66, -7849.80, 3675.01, 24059.04, 26557.07, -25175.02, -14623.79, 27899.54, -24398.00, 0.95, 0.16, -0.20
69, -10244.43, 19153.25, 14311.33, 17593.79, -11230.88, 16576.72, 43856.33, 27921.35, -7849.80, 3675.01, 24059.04, 26557.07, -25175.02, -14623.79, 27899.54, -24398.00, 0.00, 0.00, 0.00
70, -10244.43, 19153.25, 14311.33, 17593.79, -11230.88, 16576.72, 43856.33, 27921.35, -7869.80, 3693.38, 24085.70, 26665.07, -25178.95, -14608.09, 27958.79, -24377.10, 0.00, 0.00, 0.00
71, -10242.66, 19145.45, 14312.42, 17589.84, -11222.74, 16581.39, 43873.25, 27930.22, -7869.80, 3693.38, 24085.70, 26665.07, -25178.95, -14608.09, 27958.79, -24377.10, 0.00, 0.00, 0.00
72, -10242.66, 19145.45, 14312.42, 17589.84, -11222.74, 16581.39, 43873.25, 27930.22, -7836.36, 3686.25, 24068.00, 26638.18, -25174.25, -14616.92, 27924.53, -24396.48, 0.00, 0.00, 0.00
73, -10252.21, 19145.07, 14308.56, 17591.69, -11230.50, 16583.12, 43849.00, 27925.80, -7836.36, 3686.25, 24068.00, 26638.18, -25174.25, -14616.92, 27924.53, -24396.48, 0.00, 0.00, 0.00
74, -10252.21, 19145.07, 14308.56, 17591.69, -11230.50, 16583.12, 43849.00, 27925.80, -7901.99, 3694.30, 24091.85, 26733.94, -25181.38, -14613.15, 27974.06, -24377.37, 0.00, 0.00, 0.00
75, -10255.61, 19143.29, 14307.62, 17580.21, -11232.35, 16598.72, 43889.08, 27945.07, -7901.99, 3694.30, 24091.85, 26733.94, -25181.38, -14613.15, 27974.06, -24377.37, 0.00, 0.00, 0.00
76, -10255.61, 19143.29, 14307.62, 17580.21, -11232.35, 16598.72, 43889.08, 27945.07, -7888.33, 3678.09, 24067.22, 26705.01, -25179.93, -14634.25, 27934.74, -24409.00, 0.00, 0.00, 0.00
77, -10251.45, 19145.14, 14312.40, 17580.09, -11227.73, 16585.71, 43846.34, 27932.26, -7888.33, 3678.09, 24067.22, 26705.01, -25179.93, -14634.25, 27934.74, -24409.00, 0.00, 0.00, 0.00
78, -10251.45, 19145.14, 14312.40, 17580.09, -11227.73, 16585.71, 43846.34, 27932.26, -7883.64, 3676.46, 24074.21, 26752.06, -25172.64, -14623.70, 27959.73, -24387.74, 0.94, 0.16, -0.20
79, -10257.44, 19143.17, 14308.80, 17575.02, -11239.19, 16592.32, 43875.78, 27946.59, -7883.64, 3676.46, 24074.21, 26752.06, -25172.64, -14623.70, 27959.73, -24387.74, 0.00, 0.00, 0.00
80, -10257.44, 19143.17, 14308.80, 17575.02, -11239.19, 16592.32, 43875.78, 27946.59, -7868.89, 3669.93, 24061.59, 26743.79, -25185.34, -14645.94, 27936.77, -24411.57, 0.00, 0.00, 0.00
81, -10229.19, 19167.78, 14327.20, 17588.99, -11222.54, 16572.23, 43826.14, 27929.02, -7868.89, 3669.93, 24061.59, 26743.79, -25185.34, -14645.94, 27936.77, -24411.57, 0.00, 0.00, 0.00
82, -10229.19, 19167.78, 14327.20, 17588.99, -11222.54, 16572.23, 43826.14, 27929.02, -7859.61, 3683.61, 24078.10, 26775.29, -25168.26, -14620.19, 27956.33, -24374.91, 0.00, 0.00, 0.00
83, -10250.96, 19147.35, 14310.17, 17584.36, -11235.37, 16608.49, 43890.96, 27970.77, -7859.61, 3683.61, 24078.10, 26775.29, -25168.26, -14620.19, 27956.33, -24374.91, 0.00, 0.00, 0.00
84, -10250.96, 19147.35, 14310.17, 17584.36, -11235.37, 16608.49, 43890.96, 27970.77, -7874.45, 3680.30, 24082.08, 26804.66, -25179.55, -14649.65, 27951.82, -24404.21, 0.00, 0.00, 0.00
85, -10248.72, 19146.75, 14320.67, 17579.20, -11229.45, 16583.63, 43838.81, 27937.58, -7874.45, 3680.30, 24082.08, 26804.66, -25179.55, -14649.65, 27951.82, -24404.21, 0.00, 0.00, 0.00
86, -10248.72, 19146.75, 14320.67, 17579.20, -11229.45, 16583.63, 43838.81, 27937.58, -7886.34, 3687.52, 24085.59, 26814.81, -25163.86, -14638.34, 27955.35, -24389.15, 0.00, 0.00, 0.00
87, -10249.03, 19138.88, 14311.51, 17575.89, -11234.19, 16600.86, 43886.00, 27959.19, -7886.34, 3687.52, 24085.59, 26814.81, -25163.86, -14638.34, 27955.35, -24389.15, 0.00, 0.00, 0.00
88, -10249.03, 19138.88, 14311.51, 17575.89, -11234.19, 16600.86, 43886.00, 27959.19, -7870.43, 3688.19, 24087.29, 26852.11, -25168.69, -14652.17, 27960.94, -24403.46, 0.94, 0.15, -0.20
89, -10242.87, 19145.92, 14311.62, 17569.86, -11235.64, 16578.47, 43838.65, 27930.83, -7870.43, 3688.19, 24087.29, 26852.11, -25168.69, -14652.17, 27960.94, -24403.46, 0.00, 0.00, 0.00
90, -10242.87, 19145.92, 14311.62, 17569.86, -11235.64, 16578.47, 43838.65, 27930.83, -7874.39, 3682.45, 24081.70, 26844.38, -25150.56, -14648.64, 27948.20, -24395.99, 0.00, 0.00, 0.00
91, -10249.15, 19151.29, 14315.40, 17578.86, -11233.36, 16599.01, 43883.38, 27969.27, -7874.39, 3682.45, 24081.70, 26844.38, -25150.56, -14648.64, 27948.20, -24395.99, 0.00, 0.00, 0.00
92, -10249.15, 19151.29, 14315.40, 17578.86, -11233.36, 16599.01, 43883.38, 27969.27, -7881.00, 3702.07, 24106.20, 26923.37, -25139.95, -14644.15, 27985.97, -24390.80, 0.00, 0.00, 0.00
93, -10236.47, 19155.71, 14313.30, 17580.70, -11235.26, 16603.41, 43875.63, 27973.95, -7881.00, 3702.07, 24106.20, 26923.37, -25139.95, -14644.15, 27985.97, -24390.80, 0.00, 0.00, 0.00
94, -10236.47, 19155.71, 14313.30, 17580.70, -11235.26, 16603.41, 43875.63, 27973.95, -7868.84, 3712.29, 24115.63, 26933.18, -25145.00, -14646.94, 27989.99, -24391.59, 0.00, 0.00, 0.00
95, -10251.98, 19154.88, 14297.72, 17574.15, -11251.64, 16642.17, 43952.29, 28012.12, -7868.84, 3712.29, 24115.63, 26933.18, -25145.00, -14646.94, 27989.99, -24391.59, 0.00, 0.00, 0.00
96, -10251.98, 19154.88, 14297.72, 17574.15, -11251.64, 16642.17, 43952.29, 28012.12, -7872.73, 3727.85, 24139.39, 27029.85, -25139.30, -14644.82, 28028.28, -24395.72, 0.00, 0.00, 0.00
97, -10229.43, 19171.65, 14327.04, 17587.07, -11224.38, 16605.89, 43890.89, 27965.85, -7872.73, 3727.85, 24139.39, 27029.85, -25139.30, -14644.82, 28028.28, -24395.72, 0.00, 0.00, 0.00
98, -10229.43, 19171.65, 14327.04, 17587.07, -11224.38, 16605.89, 43890.89, 27965.85, -7874.14, 3731.38, 24141.07, 27005.91, -25118.13, -14625.77, 28004.86, -24385.26, 0.94, 0.16, -0.20
99, -10236.45, 19136.98, 14321.75, 17589.95, -11234.46, 16607.81, 43906.49, 27964.83, -7874.14, 3731.38, 24141.07, 27005.91, -25118.13, -14625.77, 28004.86, -24385.26, 0.00, 0.00, 0.00
100, -10236.45, 19136.98, 14321.75, 17589.95, -11234.46, 16607.81, 43906.49, 27964.83, -7850.78, 3745.53, 24165.01, 27118.63, -25136.39, -14630.18, 28053.14, -24384.81, 0.00, 0.00, 0.00
101, -10238.17, 19163.38, 14313.41, 17580.00, -11239.31, 16598.09, 43890.71, 27953.67, -7850.78, 3745.53, 24165.01, 27118.63, -25136.39, -14630.18, 28053.14, -24384.81, 0.00, 0.00, 0.00
102, -10238.17, 19163.38, 14313.41, 17580.00, -11239.31, 16598.09, 43890.71, 27953.67, -7848.73, 3733.50, 24143.24, 27070.42, -25118.78, -14639.34, 28011.00, -24395.79, 0.00, 0.00, 0.00
103, -10229.45, 19169.95, 14329.28, 17593.64, -11225.56, 16590.00, 43886.80, 27958.72, -7848.73, 3733.50, 24143.24, 27070.42, -25118.78, -14639.34, 28011.00, -24395.79, 0.00, 0.00, 0.00
104, -10229.45, 19169.95, 14329.28, 17593.64, -11225.56, 16590.00, 43886.80, 27958.72, -7862.61, 3746.96, 24162.71, 27154.08, -25104.94, -14628.37, 28050.86, -24370.66, 0.00, 0.00, 0.00
105, -10214.68, 19174.87, 14335.09, 17600.19, -11221.85, 16588.82, 43871.18, 27955.66, -7862.61, 3746.96, 24162.71, 27154.08, -25104.94, -14628.37, 28050.86, -24370.66, 0.00, 0.00, 0.00
106, -10214.68, 19174.87, 14335.09, 17600.19, -11221.85, 16588.82, 43871.18, 27955.66, -7869.87, 3731.98, 24138.21, 27086.76, -25115.20, -14635.61, 28007.83, -24383.67, 0.00, 0.00, 0.00
107, -10245.15, 19145.92, 14317.88, 17590.71, -11233.85, 16621.38, 43915.30, 27992.25, -7869.87, 3731.98, 24138.21, 27086.76, -25115.20, -14635.61, 28007.83, -24383.67, 0.00, 0.00, 0.00
108, -10245.15, 19145.92, 14317.88, 17590.71, -11233.85, 16621.38, 43915.30, 27992.25, -7883.84, 3721.23, 24140.13, 27149.39, -25116.41, -14642.67, 28045.52, -24383.94, 0.94, 0.16, -0.19
109, -10215.57, 19196.28, 14333.99, 17594.53, -11216.35, 16607.35, 43896.84, 27980.70, -7883.84, 3721.23, 24140.13, 27149.39, -25116.41, -14642.67, 28045.52, -24383.94, 0.00, 0.00, 0.00
110, -10215.57, 19196.28, 14333.99, 17594.53, -11216.35, 16607.35, 43896.84, 27980.70, -7809.99, 3704.38, 24091.67, 27025.11, -25101.81, -14638.18, 27974.75, -24394.60, 0.00, 0.00, 0.00
111, -10202.21, 19193.06, 14347.56, 17623.05, -11207.19, 16627.62, 43912.04, 27996.83, -7809.99, 3704.38, 24091.67, 27025.11, -25101.81, -14638.18, 27974.75, -24394.60, 0.00, 0.00, 0.00
112, -10202.21, 19193.06, 14347.56, 17623.05, -11207.19, 16627.62, 43912.04, 27996.83, -7854.00, 3695.46, 24095.09, 27061.75, -25093.47, -14628.57, 28007.05, -24373.35, 0.00, 0.00, 0.00
113, -10221.97, 19171.16, 14347.41, 17617.04, -11203.23, 16622.32, 43911.01, 27989.79, -7854.00, 3695.46, 24095.09, 27061.75, -25093.47, -14628.57, 28007.05, -24373.35, 0.00, 0.00, 0.00
114, -10221.97, 19171.16, 14347.41, 17617.04, -11203.23, 16622.32, 43911.01, 27989.79, -7875.12, 3662.51, 24042.90, 26932.78, -25104.72, -14653.24, 27930.29, -24401.00, 0.00, 0.00, 0.00
115, -10249.88, 19151.31, 14325.41, 17603.00, -11223.10, 16636.60, 43924.13, 27995.18, -7875.12, 3662.51, 24042.90, 26932.78, -25104.72, -14653.24, 27930.29, -24401.00, 0.00, 0.00, 0.00
116, -10249.88, 19151.31, 14325.41, 17603.00, -11223.10, 16636.60, 43924.13, 27995.18, -7893.72, 3657.75, 24044.84, 26971.89, -25102.04, -14645.73, 27973.19, -24382.76, 0.00, 0.00, 0.00
117, -10238.89, 19171.20, 14344.43, 17612.19, -11205.00, 16645.46, 43951.24, 28014.60, -7893.72, 3657.75, 24044.84, 26971.89, -25102.04, -14645.73, 27973.19, -24382.76, 0.00, 0.00, 0.00
118, -10238.89, 19171.20, 14344.43, 17612.19, -11205.00, 16645.46, 43951.24, 28014.60, -7864.37, 3627.15, 23980.56, 26820.55, -25079.73, -14646.85, 27891.85, -24393.44, 0.95, 0.16, -0.19
119, -10223.93, 19175.31, 14363.21, 17633.85, -11188.88, 16640.87, 43921.27, 27992.05, -7864.37, 3627.15, 23980.56, 26820.55, -25079.73, -14646.85, 27891.85, -24393.44, 0.00, 0.00, 0.00
120, -10223.93, 19175.31, 14363.21, 17633.85, -11188.88, 16640.87, 43921.27, 27992.05, -7872.17, 3622.99, 23966.63, 26798.33, -25083.84, -14632.55, 27903.58, -24361.70, 0.00, 0.00, 0.00
121, -10233.32, 19167.98, 14355.14, 17623.63, -11199.50, 16669.88, 43973.57, 28013.06, -7872.17, 3622.99, 23966.63, 26798.33, -25083.84, -14632.55, 27903.58, -24361.70, 0.00, 0.00, 0.00
122, -10233.32, 19167.98, 14355.14, 17623.63, -11199.50, 16669.88, 43973.57, 28013.06, -7842.82, 3602.92, 23922.60, 26676.11, -25086.03, -14646.65, 27847.41, -24382.67, 0.00, 0.00, 0.00
123, -10228.38, 19160.50, 14360.95, 17628.57, -11192.30, 16675.36, 43958.32, 28011.92, -7842.82, 3602.92, 23922.60, 26676.11, -25086.03, -14646.65, 27847.41, -24382.67, 0.00, 0.00, 0.00
124, -10228.38, 19160.50, 14360.95, 17628.57, -11192.30, 16675.36, 43958.32, 28011.92, -7886.83, 3607.59, 23926.94, 26670.08, -25067.73, -14631.38, 27874.03, -24357.14, 0.00, 0.00, 0.00
125, -10247.94, 19172.79, 14365.85, 17634.14, -11190.80, 16690.20, 43999.05, 28027.70, -7886.83, 3607.59, 23926.94, 26670.08, -25067.73, -14631.38, 27874.03, -24357.14, 0.00, 0.00, 0.00
126, -10247.94, 19172.79, 14365.85, 17634.14, -11190.80, 16690.20, 43999.05, 28027.70, -7888.24, 3607.12, 23913.79, 26600.36, -25062.27, -14630.45, 27837.42, -24373.62, 0.00, 0.00, 0.00
127, -10239.85, 19176.30, 14362.90, 17631.68, -11190.83, 16672.99, 43957.14, 28006.38, -7888.24, 3607.12, 23913.79, 26600.36, -25062.27, -14630.45, 27837.42, -24373.62, 0.00, 0.00, 0.00
128, -10239.85, 19176.30, 14362.90, 17631.68, -11190.83, 16672.99, 43957.14, 28006.38, -7877.22, 3613.87, 23924.08, 26597.84, -25059.75, -14616.23, 27863.77, -24349.83, 0.94, 0.16, -0.19
129, -10261.93, 19163.56, 14360.06, 17630.97, -11196.28, 16677.02, 43987.74, 28014.78, -7877.22, 3613.87, 23924.08, 26597.84, -25059.75, -14616.23, 27863.77, -24349.83, 0.00, 0.00, 0.00
130, -10261.93, 19163.56, 14360.06, 17630.97, -11196.28, 16677.02, 43987.74, 28014.78, -7913.19, 3619.33, 23926.13, 26571.57, -25065.85, -14627.34, 27858.72, -24368.14, 0.00, 0.00, 0.00
131, -10271.90, 19131.88, 14339.09, 17616.88, -11213.33, 16663.36, 43952.13, 27997.30, -7913.19, 3619.33, 23926.13, 26571.57, -25065.85, -14627.34, 27858.72, -24368.14, 0.00, 0.00, 0.00
132, -10271.90, 19131.88, 14339.09, 17616.88, -11213.33, 16663.36, 43952.13, 27997.30, -7912.47, 3632.31, 23965.12, 26621.44, -25074.88, -14629.26, 27903.20, -24360.23, 0.00, 0.00, 0.00
133, -10276.91, 19135.93, 14334.31, 17608.44, -11211.30, 16666.94, 43988.66, 28015.25, -7912.47, 3632.31, 23965.12, 26621.44, -25074.88, -14629.26, 27903.20, -24360.23, 0.00, 0.00, 0.00
134, -10276.91, 19135.93, 14334.31, 17608.44, -11211.30, 16666.94, 43988.66, 28015.25, -7902.86, 3659.07, 23989.10, 26674.19, -25078.25, -14626.22, 27924.62, -24373.55, 0.00, 0.00, 0.00
135, -10295.39, 19117.56, 14308.76, 17590.11, -11235.35, 16650.35, 43953.27, 27997.53, -7902.86, 3659.07, 23989.10, 26674.19, -25078.25, -14626.22, 27924.62, -24373.55, 0.00, 0.00, 0.00
136, -10295.39, 19117.56, 14308.76, 17590.11, -11235.35, 16650.35, 43953.27, 27997.53, -7933.19, 3666.96, 24021.02, 26735.95, -25089.23, -14635.79, 27961.47, -24369.28, 0.00, 0.00, 0.00
137, -10293.94, 19110.29, 14308.58, 17587.42, -11236.85, 16660.88, 43999.36, 28022.18, -7933.19, 3666.96, 24021.02, 26735.95, -25089.23, -14635.79, 27961.47, -24369.28, 0.00, 0.00, 0.00
138, -10293.94, 19110.29, 14308.58, 17587.42, -11236.85, 16660.88, 43999.36, 28022.18, -7909.75, 3675.72, 24039.17, 26809.75, -25084.54, -14639.65, 27990.75, -24376.05, 0.94, 0.16, -0.20
139, -10301.32, 19127.10, 14317.23, 17589.57, -11242.68, 16643.22, 43957.99, 28007.65, -7909.75, 3675.72, 24039.17, 26809.75, -25084.54, -14639.65, 27990.75, -24376.05, 0.00, 0.00, 0.00
140, -10301.32, 19127.10, 14317.23, 17589.57, -11242.68, 16643.22, 43957.99, 28007.65, -7924.83, 3700.62, 24074.48, 26852.47, -25073.56, -14620.10, 28020.57, -24357.12, 0.00, 0.00, 0.00
141, -10287.90, 19108.19, 14322.84, 17599.32, -11232.62, 16683.12, 44029.65, 28058.39, -7924.83, 3700.62, 24074.48, 26852.47, -25073.56, -14620.10, 28020.57, -24357.12, 0.00, 0.00, 0.00
142, -10287.90, 19108.19, 14322.84, 17599.32, -11232.62, 16683.12, 44029.65, 28058.39, -7891.15, 3702.90, 24090.53, 26939.24, -25070.05, -14614.29, 28053.72, -24367.65, 0.00, 0.00, 0.00
143, -10296.15, 19111.05, 14316.45, 17587.47, -11246.88, 16666.73, 43998.18, 28041.00, -7891.15, 3702.90, 24090.53, 26939.24, -25070.05, -14614.29, 28053.72, -24367.65, 0.00, 0.00, 0.00
144, -10296.15, 19111.05, 14316.45, 17587.47, -11246.88, 16666.73, 43998.18, 28041.00, -7959.34, 3690.00, 24088.61, 26930.43, -25076.76, -14635.94, 28040.91, -24380.39, 0.00, 0.00, 0.00
145, -10298.05, 19133.07, 14315.89, 17581.88, -11246.97, 16686.36, 44053.41, 28076.03, -7959.34, 3690.00, 24088.61, 26930.43, -25076.76, -14635.94, 28040.91, -24380.39, 0.00, 0.00, 0.00
146, -10298.05, 19133.07, 14315.89, 17581.88, -11246.97, 16686.36, 44053.41, 28076.03, -7916.59, 3684.82, 24097.06, 27004.91, -25053.69, -14633.64, 28074.08, -24380.46, 0.00, 0.00, 0.00
147, -10259.94, 19125.83, 14329.93, 17589.08, -11228.26, 16666.55, 44022.14, 28057.21, -7916.59, 3684.82, 24097.06, 27004.91, -25053.69, -14633.64, 28074.08, -24380.46, 0.00, 0.00, 0.00
148, -10259.94, 19125.83, 14329.93, 17589.08, -11228.26, 16666.55, 44022.14, 28057.21, -7904.83, 3679.16, 24077.46, 26950.01, -25042.60, -14637.11, 28043.06, -24380.16, 0.94, 0.16, -0.19
149, -10303.33, 19108.24, 14323.35, 17587.25, -11238.43, 16692.86, 44076.45, 28106.94, -7904.83, 3679.16, 24077.46, 26950.01, -25042.60, -14637.11, 28043.06, -24380.16, 0.00, 0.00, 0.00
150, -10303.33, 19108.24, 14323.35, 17587.25, -11238.43, 16692.86, 44076.45, 28106.94, -7965.00, 3684.24, 24096.19, 27040.92, -25056.86, -14652.33, 28089.37, -24376.90, 0.00, 0.00, 0.00
151, -10288.22, 19113.51, 14319.17, 17571.89, -11245.79, 16678.87, 44068.68, 28095.83, -7965.00, 3684.24, 24096.19, 27040.92, -25056.86, -14652.33, 28089.37, -24376.90, 0.00, 0.00, 0.00
152, -10288.22, 19113.51, 14319.17, 17571.89, -11245.79, 16678.87, 44068.68, 28095.83, -7901.36, 3671.39, 24068.04, 26964.76, -25048.19, -14665.56, 28033.54, -24392.97, 0.00, 0.00, 0.00
153, -10289.29, 19109.40, 14317.41, 17571.58, -11239.57, 16684.82, 44089.21, 28108.95, -7901.36, 3671.39, 24068.04, 26964.76, -25048.19, -14665.56, 28033.54, -24392.97, 0.00, 0.00, 0.00
154, -10289.29, 19109.40, 14317.41, 17571.58, -11239.57, 16684.82, 44089.21, 28108.95, -7903.73, 3676.15, 24086.02, 27048.52, -25046.27, -14668.82, 28078.69, -24385.44, 0.00, 0.00, 0.00
155, -10297.00, 19110.85, 14298.77, 17548.76, -11254.64, 16678.33, 44094.74, 28103.88, -7903.73, 3676.15, 24086.02, 27048.52, -25046.27, -14668.82, 28078.69, -24385.44, 0.00, 0.00, 0.00
156, -10297.00, 19110.85, 14298.77, 17548.76, -11254.64, 16678.33, 44094.74, 28103.88, -7949.35, 3658.35, 24063.26, 26986.02, -25047.32, -14693.54, 28030.07, -24417.83, 0.00, 0.00, 0.00
157, -10276.86, 19129.49, 14313.95, 17558.86, -11240.42, 16662.26, 44085.21, 28091.78, -7949.35, 3658.35, 24063.26, 26986.02, -25047.32, -14693.54, 28030.07, -24417.83, 0.00, 0.00, 0.00
158, -10276.86, 19129.49, 14313.95, 17558.86, -11240.42, 16662.26, 44085.21, 28091.78, -7914.91, 3672.68, 24076.65, 27053.41, -25025.57, -14668.71, 28065.74, -24395.41, 0.94, 0.16, -0.20
159, -10265.19, 19143.42, 14327.42, 17569.95, -11237.50, 16641.43, 44065.75, 28071.02, -7914.91, 3672.68, 24076.65, 27053.41, -25025.57, -14668.71, 28065.74, -24395.41, 0.00, 0.00, 0.00
160, -10265.19, 19143.42, 14327.42, 17569.95, -11237.50, 16641.43, 44065.75, 28071.02, -7886.23, 3676.17, 24063.57, 26979.02, -25014.71, -14669.34, 28015.38, -24405.33, 0.00, 0.00, 0.00
161, -10254.09, 19127.68, 14333.15, 17581.14, -11225.96, 16634.88, 44051.44, 28063.60, -7886.23, 3676.17, 24063.57, 26979.02, -25014.71, -14669.34, 28015.38, -24405.33, 0.00, 0.00, 0.00
162, -10254.09, 19127.68, 14333.15, 17581.14, -11225.96, 16634.88, 44051.44, 28063.60, -7877.65, 3690.45, 24095.16, 27067.89, -25008.45, -14655.73, 28070.01, -24377.17, 0.00, 0.00, 0.00
163, -10231.56, 19153.99, 14343.94, 17585.73, -11219.23, 16634.66, 44061.79, 28067.06, -7877.65, 3690.45, 24095.16, 27067.89, -25008.45, -14655.73, 28070.01, -24377.17, 0.00, 0.00, 0.00
164, -10231.56, 19153.99, 14343.94, 17585.73, -11219.23, 16634.66, 44061.79, 28067.06, -7860.75, 3672.19, 24058.21, 26968.65, -24984.18, -14661.22, 28010.42, -24389.75, 0.00, 0.00, 0.00
165, -10235.20, 19173.91, 14346.76, 17598.40, -11210.36, 16633.59, 44041.88, 28056.96, -7860.75, 3672.19, 24058.21, 26968.65, -24984.18, -14661.22, 28010.42, -24389.75, 0.00, 0.00, 0.00
166, -10235.20, 19173.91, 14346.76, 17598.40, -11210.36, 16633.59, 44041.88, 28056.96, -7883.17, 3672.46, 24065.70, 27014.16, -24985.81, -14652.82, 28045.13, -24372.05, 0.00, 0.00, 0.00
167, -10235.71, 19159.36, 14340.14, 17593.97, -11212.86, 16643.55, 44070.82, 28064.47, -7883.17, 3672.46, 24065.70, 27014.16, -24985.81, -14652.82, 28045.13, -24372.05, 0.00, 0.00, 0.00
168, -10235.71, 19159.36, 14340.14, 17593.97, -11212.86, 16643.55, 44070.82, 28064.47, -7857.87, 3653.30, 24028.62, 26928.15, -24992.74, -14670.25, 27990.51, -24401.49, 0.94, 0.16, -0.20
169, -10222.77, 19175.14, 14348.63, 17599.09, -11208.06, 16629.72, 44033.20, 28046.03, -7857.87, 3653.30, 24028.62, 26928.15, -24992.74, -14670.25, 27990.51, -24401.49, 0.00, 0.00, 0.00
170, -10222.77, 19175.14, 14348.63, 17599.09, -11208.06, 16629.72, 44033.20, 28046.03, -7874.47, 3647.04, 24031.23, 26943.02, -24998.46, -14656.91, 28007.14, -24379.70, 0.00, 0.00, 0.00
171, -10224.31, 19165.77, 14342.80, 17590.49, -11209.69, 16633.74, 44056.02, 28046.41, -7874.47, 3647.04, 24031.23, 26943.02, -24998.46, -14656.91, 28007.14, -24379.70, 0.00, 0.00, 0.00
172, -10224.31, 19165.77, 14342.80, 17590.49, -11209.69, 16633.74, 44056.02, 28046.41, -7868.35, 3636.74, 24009.42, 26869.30, -25012.79, -14666.45, 27957.07, -24403.14, 0.00, 0.00, 0.00
173, -10215.35, 19155.73, 14339.69, 17588.47, -11210.20, 16618.83, 44014.09, 28019.52, -7868.35, 3636.74, 24009.42, 26869.30, -25012.79, -14666.45, 27957.07, -24403.14, 0.00, 0.00, 0.00
174, -10215.35, 19155.73, 14339.69, 17588.47, -11210.20, 16618.83, 44014.09, 28019.52, -7848.70, 3657.15, 24032.01, 26904.10, -25038.56, -14647.59, 27986.71, -24380.68, 0.00, 0.00, 0.00
175, -10198.16, 19199.39, 14344.88, 17593.21, -11206.85, 16625.47, 44038.68, 28022.67, -7848.70, 3657.15, 24032.01, 26904.10, -25038.56, -14647.59, 27986.71, -24380.68, 0.00, 0.00, 0.00
176, -10198.16, 19199.39, 14344.88, 17593.21, -11206.85, 16625.47, 44038.68, 28022.67, -7845.22, 3662.02, 24032.75, 26873.41, -25048.32, -14643.43, 27961.38, -24390.36, 0.00, 0.00, 0.00
177, -10186.45, 19197.38, 14354.02, 17603.14, -11201.13, 16611.66, 43985.21, 27993.03, -7845.22, 3662.02, 24032.75, 26873.41, -25048.32, -14643.43, 27961.38, -24390.36, 0.00, 0.00, 0.00
178, -10186.45, 19197.38, 14354.02, 17603.14, -11201.13, 16611.66, 43985.21, 27993.03, -7856.71, 3684.04, 24074.37, 26930.39, -25072.82, -14620.03, 28005.57, -24361.25, 0.94, 0.16, -0.20
179, -10202.68, 19178.38, 14340.34, 17591.58, -11214.21, 16639.51, 44046.88, 28026.90, -7856.71, 3684.04, 24074.37, 26930.39, -25072.82, -14620.03, 28005.57, -24361.25, 0.00, 0.00, 0.00
180, -10202.68, 19178.38, 14340.34, 17591.58, -11214.21, 16639.51, 44046.88, 28026.90, -7847.74, 3685.82, 24084.72, 26956.40, -25096.20, -14638.27, 28005.55, -24386.60, 0.00, 0.00, 0.00
181, -10188.84, 19185.06, 14354.67, 17593.48, -11198.74, 16607.55, 43988.07, 27998.62, -7847.74, 3685.82, 24084.72, 26956.40, -25096.20, -14638.27, 28005.55, -24386.60, 0.00, 0.00, 0.00
182, -10188.84, 19185.06, 14354.67, 17593.48, -11198.74, 16607.55, 43988.07, 27998.62, -7846.29, 3699.33, 24103.63, 26981.77, -25096.52, -14622.53, 28023.03, -24365.01, 0.00, 0.00, 0.00
183, -10205.27, 19163.78, 14343.70, 17587.02, -11201.87, 16623.15, 44036.54, 28025.33, -7846.29, 3699.33, 24103.63, 26981.77, -25096.52, -14622.53, 28023.03, -24365.01, 0.00, 0.00, 0.00
184, -10205.27, 19163.78, 14343.70, 17587.02, -11201.87, 16623.15, 44036.54, 28025.33, -7861.31, 3698.83, 24111.34, 27030.88, -25118.82, -14632.88, 28039.66, -24381.37, 0.00, 0.00, 0.00
185, -10232.65, 19144.83, 14335.38, 17573.99, -11210.63, 16604.19, 43999.41, 28009.39, -7861.31, 3698.83, 24111.34, 27030.88, -25118.82, -14632.88, 28039.66, -24381.37, 0.00, 0.00, 0.00
186, -10232.65, 19144.83, 14335.38, 17573.99, -11210.63, 16604.19, 43999.41, 28009.39, -7889.29, 3695.99, 24109.69, 27034.63, -25132.14, -14629.78, 28040.87, -24377.75, 0.00, 0.00, 0.00
187, -10265.11, 19122.45, 14322.33, 17571.11, -11223.21, 16623.73, 44053.54, 28043.91, -7889.29, 3695.99, 24109.69, 27034.63, -25132.14, -14629.78, 28040.87, -24377.75, 0.00, 0.00, 0.00
188, -10265.11, 19122.45, 14322.33, 17571.11, -11223.21, 16623.73, 44053.54, 28043.91, -7921.35, 3683.43, 24102.80, 27079.54, -25156.55, -14643.16, 28051.53, -24393.55, 0.94, 0.16, -0.20
189, -10308.47, 19074.67, 14309.18, 17560.78, -11235.73, 16608.31, 44028.09, 28028.64, -7921.35, 3683.43, 24102.80, 27079.54, -25156.55, -14643.16, 28051.53, -24393.55, 0.00, 0.00, 0.00
190, -10308.47, 19074.67, 14309.18, 17560.78, -11235.73, 16608.31, 44028.09, 28028.64, -7954.85, 3657.93, 24076.36, 27044.18, -25162.05, -14648.59, 28029.64, -24396.19, 0.00, 0.00, 0.00
191, -10348.34, 19054.62, 14304.11, 17564.56, -11238.17, 16627.06, 44080.16, 28052.40, -7954.85, 3657.93, 24076.36, 27044.18, -25162.05, -14648.59, 28029.64, -24396.19, 0.00, 0.00, 0.00
192, -10348.34, 19054.62, 14304.11, 17564.56, -11238.17, 16627.06, 44080.16, 28052.40, -7970.65, 3646.20, 24065.09, 27075.25, -25161.67, -14655.64, 28042.65, -24401.35, 0.00, 0.00, 0.00
193, -10361.89, 19060.45, 14310.70, 17565.50, -11227.24, 16612.17, 44051.00, 28030.56, -7970.65, 3646.20, 24065.09, 27075.25, -25161.67, -14655.64, 28042.65, -24401.35, 0.00, 0.00, 0.00
194, -10361.89, 19060.45, 14310.70, 17565.50, -11227.24, 16612.17, 44051.00, 28030.56, -7965.65, 3631.55, 24035.59, 27005.18, -25160.69, -14650.99, 28005.60, -24398.83, 0.00, 0.00, 0.00
195, -10354.45, 19029.25, 14312.11, 17570.86, -11218.59, 16625.92, 44084.41, 28045.89, -7965.65, 3631.55, 24035.59, 27005.18, -25160.69, -14650.99, 28005.60, -24398.83, 0.00, 0.00, 0.00
196, -10354.45, 19029.25, 14312.11, 17570.86, -11218.59, 16625.92, 44084.41, 28045.89, -7919.63, 3624.85, 24024.21, 27034.72, -25156.46, -14641.33, 28025.60, -24392.77, 0.00, 0.00, 0.00
197, -10376.04, 19042.48, 14314.50, 17569.72, -11221.71, 16611.37, 44055.96, 28022.29, -7919.63, 3624.85, 24024.21, 27034.72, -25156.46, -14641.33, 28025.60, -24392.77, 0.93, 0.16, -0.19
198, -10376.04, 19042.48, 14314.50, 17569.72, -11221.71, 16611.37, 44055.96, 28022.29, -7978.19, 3611.17, 23995.02, 26946.48, -25151.28, -14646.23, 27979.94, -24401.91, 0.00, 0.00, 0.00
199, -10371.61, 19023.57, 14310.12, 17575.18, -11224.31, 16625.67, 44086.27, 28036.48, -7978.19, 3611.17, 23995.02, 26946.48, -25151.28, -14646.23, 27979.94, -24401.91, 0.00, 0.00, 0.00
200, -10371.61, 19023.57, 14310.12, 17575.18, -11224.31, 16625.67, 44086.27, 28036.48, -7968.44, 3621.94, 24011.03, 27012.91, -25151.79, -14636.44, 28021.67, -24387.47, 0.00, 0.00, 0.00
201, -10358.38, 19041.25, 14330.19, 17578.42, -11211.84, 16613.31, 44063.89, 28020.32, -7968.44, 3621.94, 24011.03, 27012.91, -25151.79, -14636.44, 28021.67, -24387.47, 0.00, 0.00, 0.00
202, -10358.38, 19041.25, 14330.19, 17578.42, -11211.84, 16613.31, 44063.89, 28020.32, -8009.97, 3619.35, 23990.15, 26909.71, -25127.25, -14628.50, 27968.29, -24387.94, 0.00, 0.00, 0.00
203, -10352.93, 19080.70, 14339.18, 17594.26, -11203.41, 16619.97, 44069.55, 28025.11, -8009.97, 3619.35, 23990.15, 26909.71, -25127.25, -14628.50, 27968.29, -24387.94, 0.00, 0.00, 0.00
204, -10352.93, 19080.70, 14339.18, 17594.26, -11203.41, 16619.97, 44069.55, 28025.11, -8001.50, 3628.69, 24012.57, 26969.21, -25134.58, -14620.97, 28011.43, -24372.59, 0.00, 0.00, 0.00
205, -10349.71, 19051.73, 14324.29, 17578.28, -11214.79, 16622.61, 44070.93, 28022.54, -8001.50, 3628.69, 24012.57, 26969.21, -25134.58, -14620.97, 28011.43, -24372.59, 0.00, 0.00, 0.00
206, -10349.71, 19051.73, 14324.29, 17578.28, -11214.79, 16622.61, 44070.93, 28022.54, -7955.81, 3610.39, 23981.92, 26875.45, -25144.35, -14642.20, 27963.51, -24399.05, 0.00, 0.00, 0.00
207, -10346.06, 19059.04, 14321.32, 17579.18, -11213.89, 16625.70, 44075.14, 28028.04, -7955.81, 3610.39, 23981.92, 26875.45, -25144.35, -14642.20, 27963.51, -24399.05, 0.94, 0.16, -0.19
208, -10346.06, 19059.04, 14321.32, 17579.18, -11213.89, 16625.70, 44075.14, 28028.04, -7977.29, 3612.09, 24001.50, 26936.11, -25140.88, -14639.86, 28010.47, -24385.53, 0.00, 0.00, 0.00
209, -10340.88, 19061.19, 14318.39, 17573.90, -11221.89, 16620.87, 44079.16, 28020.23, -7977.29, 3612.09, 24001.50, 26936.11, -25140.88, -14639.86, 28010.47, -24385.53, 0.00, 0.00, 0.00
210, -10340.88, 19061.19, 14318.39, 17573.90, -11221.89, 16620.87, 44079.16, 28020.23, -7930.82, 3594.88, 23968.29, 26835.79, -25145.76, -14658.38, 27944.78, -24415.01, 0.00, 0.00, 0.00
211, -10324.11, 19081.68, 14321.88, 17580.23, -11225.51, 16620.51, 44067.40, 28019.59, -7930.82, 3594.88, 23968.29, 26835.79, -25145.76, -14658.38, 27944.78, -24415.01, 0.00, 0.00, 0.00
212, -10324.11, 19081.68, 14321.88, 17580.23, -11225.51, 16620.51, 44067.40, 28019.59, -7966.05, 3596.37, 23977.03, 26876.70, -25154.90, -14652.60, 27975.02, -24395.68, 0.00, 0.00, 0.00
213, -10333.17, 19054.79, 14311.53, 17560.18, -11239.08, 16623.33, 44090.76, 28025.04, -7966.05, 3596.37, 23977.03, 26876.70, -25154.90, -14652.60, 27975.02, -24395.68, 0.00, 0.00, 0.00
214, -10333.17, 19054.79, 14311.53, 17560.18, -11239.08, 16623.33, 44090.76, 28025.04, -8001.52, 3575.16, 23936.75, 26767.22, -25149.62, -14678.03, 27905.91, -24430.46, 0.00, 0.00, 0.00
215, -10325.32, 19068.36, 14312.07, 17557.54, -11240.20, 16618.43, 44073.97, 28013.15, -8001.52, 3575.16, 23936.75, 26767.22, -25149.62, -14678.03, 27905.91, -24430.46, 0.00, 0.00, 0.00
216, -10325.32, 19068.36, 14312.07, 17557.54, -11240.20, 16618.43, 44073.97, 28013.15, -7974.48, 3602.43, 23974.57, 26838.70, -25153.36, -14668.94, 27964.38, -24404.15, 0.00, 0.00, 0.00
217, -10316.63, 19071.29, 14300.89, 17539.70, -11251.11, 16626.75, 44113.85, 28028.95, -7974.48, 3602.43, 23974.57, 26838.70, -25153.36, -14668.94, 27964.38, -24404.15, 0.95, 0.16, -0.20
218, -10316.63, 19071.29, 14300.89, 17539.70, -11251.11, 16626.75, 44113.85, 28028.95, -7943.74, 3581.06, 23949.20, 26763.22, -25139.12, -14693.99, 27911.47, -24433.67, 0.00, 0.00, 0.00
219, -10311.53, 19069.77, 14297.20, 17534.45, -11248.83, 16605.63, 44077.37, 28011.56, -7943.74, 3581.06, 23949.20, 26763.22, -25139.12, -14693.99, 27911.47, -24433.67, 0.00, 0.00, 0.00
220, -10311.53, 19069.77, 14297.20, 17534.45, -11248.83, 16605.63, 44077.37, 28011.56, -7950.72, 3594.58, 23976.07, 26817.98, -25142.05, -14682.17, 27954.48, -24406.52, 0.00, 0.00, 0.00
221, -10319.98, 19055.85, 14278.38, 17523.92, -11265.97, 16636.04, 44146.32, 28054.50, -7950.72, 3594.58, 23976.07, 26817.98, -25142.05, -14682.17, 27954.48, -24406.52, 0.00, 0.00, 0.00
222, -10319.98, 19055.85, 14278.38, 17523.92, -11265.97, 16636.04, 44146.32, 28054.50, -7941.04, 3604.82, 23974.99, 26804.10, -25149.76, -14704.18, 27937.58, -24436.42, 0.00, 0.00, 0.00
223, -10292.60, 19081.35, 14294.75, 17532.57, -11253.95, 16615.73, 44114.70, 28039.23, -7941.04, 3604.82, 23974.99, 26804.10, -25149.76, -14704.18, 27937.58, -24436.42, 0.00, 0.00, 0.00
224, -10292.60, 19081.35, 14294.75, 17532.57, -11253.95, 16615.73, 44114.70, 28039.23, -7922.31, 3610.19, 23987.24, 26822.79, -25112.12, -14677.81, 27955.08, -24408.02, 0.00, 0.00, 0.00
225, -10279.68, 19118.01, 14312.38, 17549.31, -11238.23, 16606.90, 44130.03, 28039.30, -7922.31, 3610.19, 23987.24, 26822.79, -25112.12, -14677.81, 27955.08, -24408.02, 0.00, 0.00, 0.00
226, -10279.68, 19118.01, 14312.38, 17549.31, -11238.23, 16606.90, 44130.03, 28039.30, -7917.19, 3611.75, 23986.15, 26805.69, -25114.78, -14685.14, 27938.85, -24417.49, 0.00, 0.00, 0.00
227, -10271.90, 19122.83, 14311.64, 17542.92, -11236.51, 16594.65, 44088.61, 28019.25, -7917.19, 3611.75, 23986.15, 26805.69, -25114.78, -14685.14, 27938.85, -24417.49, 0.95, 0.16, -0.20
228, -10271.90, 19122.83, 14311.64, 17542.92, -11236.51, 16594.65, 44088.61, 28019.25, -7907.64, 3621.05, 24004.54, 26830.01, -25112.92, -14672.49, 27965.52, -24396.12, 0.00, 0.00, 0.00
229, -10270.34, 19113.85, 14310.06, 17545.85, -11244.56, 16615.44, 44144.11, 28048.49, -7907.64, 3621.05, 24004.54, 26830.01, -25112.92, -14672.49, 27965.52, -24396.12, 0.00, 0.00, 0.00
230, -10270.34, 19113.85, 14310.06, 17545.85, -11244.56, 16615.44, 44144.11, 28048.49, -7883.64, 3616.18, 23998.31, 26827.23, -25104.52, -14684.25, 27954.54, -24413.63, 0.00, 0.00, 0.00
231, -10247.31, 19128.98, 14322.15, 17551.13, -11233.36, 16585.26, 44080.12, 28010.18, -7883.64, 3616.18, 23998.31, 26827.23, -25104.52, -14684.25, 27954.54, -24413.63, 0.00, 0.00, 0.00
232, -10247.31, 19128.98, 14322.15, 17551.13, -11233.36, 16585.26, 44080.12, 28010.18, -7875.77, 3622.48, 24006.58, 26816.48, -25098.73, -14669.02, 27955.28, -24396.15, 0.00, 0.00, 0.00
233, -10237.81, 19129.25, 14319.49, 17556.49, -11234.88, 16610.47, 44129.54, 28040.46, -7875.77, 3622.48, 24006.58, 26816.48, -25098.73, -14669.02, 27955.28, -24396.15, 0.00, 0.00, 0.00
234, -10237.81, 19129.25, 14319.49, 17556.49, -11234.88, 16610.47, 44129.54, 28040.46, -7833.68, 3622.73, 24012.05, 26845.81, -25107.13, -14674.97, 27963.13, -24410.61, 0.00, 0.00, 0.00
235, -10228.47, 19136.22, 14317.54, 17548.33, -11235.95, 16594.09, 44086.58, 28019.10, -7833.68, 3622.73, 24012.05, 26845.81, -25107.13, -14674.97, 27963.13, -24410.61, 0.00, 0.00, 0.00
236, -10228.47, 19136.22, 14317.54, 17548.33, -11235.95, 16594.09, 44086.58, 28019.10, -7880.06, 3624.29, 24010.62, 26826.88, -25100.14, -14673.03, 27956.94, -24398.38, 0.00, 0.00, 0.00
237, -10239.96, 19152.99, 14328.00, 17553.72, -11227.46, 16606.38, 44118.86, 28037.96, -7880.06, 3624.29, 24010.62, 26826.88, -25100.14, -14673.03, 27956.94, -24398.38, 0.95, 0.16, -0.19
238, -10239.96, 19152.99, 14328.00, 17553.72, -11227.46, 16606.38, 44118.86, 28037.96, -7882.52, 3636.65, 24019.21, 26867.06, -25090.55, -14670.66, 27974.41, -24395.86, 0.00, 0.00, 0.00
239, -10229.34, 19153.39, 14333.84, 17556.51, -11228.31, 16602.16, 44087.18, 28027.59, -7882.52, 3636.65, 24019.21, 26867.06, -25090.55, -14670.66, 27974.41, -24395.86, 0.00, 0.00, 0.00
240, -10229.34, 19153.39, 14333.84, 17556.51, -11228.31, 16602.16, 44087.18, 28027.59, -7864.33, 3641.66, 24021.91, 26839.84, -25084.36, -14665.83, 27958.07, -24392.57, 0.00, 0.00, 0.00
241, -10221.43, 19153.72, 14336.81, 17558.41, -11232.02, 16612.46, 44119.10, 28036.84, -7864.33, 3641.66, 24021.91, 26839.84, -25084.36, -14665.83, 27958.07, -24392.57, 0.00, 0.00, 0.00
242, -10221.43, 19153.72, 14336.81, 17558.41, -11232.02, 16612.46, 44119.10, 28036.84, -7843.05, 3650.87, 24039.81, 26900.73, -25076.22, -14666.25, 27982.15, -24392.68, 0.00, 0.00, 0.00
243, -10200.71, 19170.71, 14359.30, 17574.17, -11218.90, 16590.31, 44069.77, 28008.25, -7843.05, 3650.87, 24039.81, 26900.73, -25076.22, -14666.25, 27982.15, -24392.68, 0.00, 0.00, 0.00
244, -10200.71, 19170.71, 14359.30, 17574.17, -11218.90, 16590.31, 44069.77, 28008.25, -7836.43, 3655.23, 24033.60, 26842.41, -25063.05, -14655.10, 27951.53, -24389.13, 0.00, 0.00, 0.00
245, -10217.27, 19169.50, 14340.59, 17573.77, -11233.07, 16616.00, 44108.55, 28034.45, -7836.43, 3655.23, 24033.60, 26842.41, -25063.05, -14655.10, 27951.53, -24389.13, 0.00, 0.00, 0.00
246, -10217.27, 19169.50, 14340.59, 17573.77, -11233.07, 16616.00, 44108.55, 28034.45, -7828.83, 3658.29, 24053.09, 26926.97, -25077.23, -14658.47, 27996.07, -24384.17, 0.00, 0.00, 0.00
247, -10209.72, 19165.62, 14348.32, 17573.61, -11228.98, 16608.73, 44096.41, 28025.15, -7828.83, 3658.29, 24053.09, 26926.97, -25077.23, -14658.47, 27996.07, -24384.17, 0.95, 0.16, -0.20
248, -10209.72, 19165.62, 14348.32, 17573.61, -11228.98, 16608.73, 44096.41, 28025.15, -7865.62, 3648.56, 24042.70, 26864.72, -25058.05, -14658.21, 27965.74, -24389.44, 0.00, 0.00, 0.00
249, -10218.95, 19163.96, 14345.21, 17579.47, -11227.04, 16629.36, 44134.64, 28055.28, -7865.62, 3648.56, 24042.70, 26864.72, -25058.05, -14658.21, 27965.74, -24389.44, 0.00, 0.00, 0.00
250, -10218.95, 19163.96, 14345.21, 17579.47, -11227.04, 16629.36, 44134.64, 28055.28, -7858.58, 3664.61, 24062.86, 26950.01, -25057.20, -14657.27, 28017.62, -24380.97, 0.00, 0.00, 0.00
251, -10211.57, 19174.06, 14347.74, 17571.40, -11223.53, 16610.72, 44117.52, 28039.46, -7858.58, 3664.61, 24062.86, 26950.01, -25057.20, -14657.27, 28017.62, -24380.97, 0.00, 0.00, 0.00
252, -10211.57, 19174.06, 14347.74, 17571.40, -11223.53, 16610.72, 44117.52, 28039.46, -7836.81, 3653.30, 24032.26, 26867.27, -25049.31, -14667.93, 27963.28, -24399.57, 0.00, 0.00, 0.00
253, -10218.19, 19166.15, 14341.77, 17574.57, -11223.82, 16614.12, 44128.31, 28051.35, -7836.81, 3653.30, 24032.26, 26867.27, -25049.31, -14667.93, 27963.28, -24399.57, 0.00, 0.00, 0.00
254, -10218.19, 19166.15, 14341.77, 17574.57, -11223.82, 16614.12, 44128.31, 28051.35, -7849.62, 3661.17, 24057.09, 26955.91, -25054.31, -14663.91, 28017.82, -24388.50, 0.00, 0.00, 0.00
255, -10230.24, 19145.81, 14334.98, 17562.08, -11231.75, 16615.41, 44141.79, 28058.93, -7849.62, 3661.17, 24057.09, 26955.91, -25054.31, -14663.91, 28017.82, -24388.50, 0.00, 0.00, 0.00
0, -10230.24, 19145.81, 14334.98, 17562.08, -11231.75, 16615.41, 44141.79, 28058.93, -7889.92, 3650.11, 24042.34, 26890.64, -25054.27, -14668.49, 27977.19, -24408.35, 0.00, 0.00, 0.00
1, -10239.60, 19184.10, 14334.87, 17568.83, -11232.98, 16624.38, 44152.52, 28073.63, -7889.92, 3650.11, 24042.34, 26890.64, -25054.27, -14668.49, 27977.19, -24408.35, 0.94, 0.16, -0.19
2, -10239.60, 19184.10, 14334.87, 17568.83, -11232.98, 16624.38, 44152.52, 28073.63, -7878.70, 3663.61, 24068.80, 26977.13, -25052.91, -14665.74, 28033.20, -24389.48, 0.00, 0.00, 0.00
3, -10228.83, 19147.76, 14333.03, 17558.97, -11237.50, 16615.37, 44159.89, 28069.43, -7878.70, 3663.61, 24068.80, 26977.13, -25052.91, -14665.74, 28033.20, -24389.48, 0.00, 0.00, 0.00
4, -10228.83, 19147.76, 14333.03, 17558.97, -11237.50, 16615.37, 44159.89, 28069.43, -7840.39, 3651.60, 24043.08, 26906.98, -25056.84, -14681.56, 27978.71, -24410.34, 0.00, 0.00, 0.00
5, -10230.42, 19154.84, 14326.39, 17551.55, -11248.60, 16612.62, 44151.45, 28064.96, -7840.39, 3651.60, 24043.08, 26906.98, -25056.84, -14681.56, 27978.71, -24410.34, 0.00, 0.00, 0.00
6, -10230.42, 19154.84, 14326.39, 17551.55, -11248.60, 16612.62, 44151.45, 28064.96, -7871.55, 3656.97, 24063.69, 26981.73, -25054.09, -14675.13, 28026.14, -24395.10, 0.00, 0.00, 0.00
7, -10226.44, 19155.36, 14336.56, 17553.14, -11242.61, 16608.06, 44165.44, 28065.01, -7871.55, 3656.97, 24063.69, 26981.73, -25054.09, -14675.13, 28026.14, -24395.10, 0.00, 0.00, 0.00
8, -10226.44, 19155.36, 14336.56, 17553.14, -11242.61, 16608.06, 44165.44, 28065.01, -7857.17, 3650.82, 24037.71, 26905.71, -25037.19, -14678.57, 27972.85, -24416.44, 0.00, 0.00, 0.00
9, -10229.92, 19146.88, 14331.74, 17558.52, -11242.01, 16597.06, 44133.18, 28042.68, -7857.17, 3650.82, 24037.71, 26905.71, -25037.19, -14678.57, 27972.85, -24416.44, 0.00, 0.00, 0.00
10, -10229.92, 19146.88, 14331.74, 17558.52, -11242.01, 16597.06, 44133.18, 28042.68, -7880.04, 3655.99, 24057.00, 26969.66, -25042.51, -14674.23, 28018.27, -24393.89, 0.00, 0.00, 0.00
11, -10231.15, 19152.49, 14328.88, 17560.36, -11247.17, 16612.96, 44173.35, 28059.69, -7880.04, 3655.99, 24057.00, 26969.66, -25042.51, -14674.23, 28018.27, -24393.89, 0.95, 0.16, -0.19
12, -10231.15, 19152.49, 14328.88, 17560.36, -11247.17, 16612.96, 44173.35, 28059.69, -7858.72, 3663.16, 24045.16, 26931.82, -25028.68, -14669.20, 27986.66, -24407.41, 0.00, 0.00, 0.00
13, -10215.57, 19183.88, 14350.07, 17584.63, -11231.26, 16612.98, 44144.27, 28052.38, -7858.72, 3663.16, 24045.16, 26931.82, -25028.68, -14669.20, 27986.66, -24407.41, 0.00, 0.00, 0.00
14, -10215.57, 19183.88, 14350.07, 17584.63, -11231.26, 16612.98, 44144.27, 28052.38, -7851.70, 3679.48, 24070.08, 26981.77, -25007.91, -14638.11, 28029.85, -24369.23, 0.00, 0.00, 0.00
15, -10227.46, 19167.60, 14340.34, 17578.84, -11240.02, 16636.56, 44197.46, 28083.07, -7851.70, 3679.48, 24070.08, 26981.77, -25007.91, -14638.11, 28029.85, -24369.23, 0.00, 0.00, 0.00
16, -10227.46, 19167.60, 14340.34, 17578.84, -11240.02, 16636.56, 44197.46, 28083.07, -7864.98, 3657.62, 24045.58, 26942.72, -25024.99, -14674.97, 27996.25, -24411.21, 0.00, 0.00, 0.00
17, -10236.05, 19163.42, 14325.93, 17561.34, -11250.71, 16619.10, 44168.27, 28063.22, -7864.98, 3657.62, 24045.58, 26942.72, -25024.99, -14674.97, 27996.25, -24411.21, 0.00, 0.00, 0.00
18, -10236.05, 19163.42, 14325.93, 17561.34, -11250.71, 16619.10, 44168.27, 28063.22, -7863.81, 3658.53, 24046.14, 26961.19, -25029.82, -14674.57, 28011.81, -24397.31, 0.00, 0.00, 0.00
19, -10231.42, 19151.29, 14317.30, 17553.27, -11261.57, 16634.35, 44227.30, 28089.71, -7863.81, 3658.53, 24046.14, 26961.19, -25029.82, -14674.57, 28011.81, -24397.31, 0.00, 0.00, 0.00
20, -10231.42, 19151.29, 14317.30, 17553.27, -11261.57, 16634.35, 44227.30, 28089.71, -7835.69, 3634.68, 24016.05, 26921.42, -25015.98, -14689.72, 27977.52, -24416.66, 0.00, 0.00, 0.00
21, -10217.74, 19163.07, 14336.81, 17560.80, -11244.04, 16605.04, 44173.10, 28058.63, -7835.69, 3634.68, 24016.05, 26921.42, -25015.98, -14689.72, 27977.52, -24416.66, 0.93, 0.16, -0.20
22, -10217.74, 19163.07, 14336.81, 17560.80, -11244.04, 16605.04, 44173.10, 28058.63, -7876.67, 3638.77, 24018.67, 26908.19, -25004.47, -14671.33, 27983.04, -24392.39, 0.00, 0.00, 0.00
23, -10241.17, 19149.90, 14325.97, 17559.82, -11254.44, 16639.42, 44246.24, 28102.91, -7876.67, 3638.77, 24018.67, 26908.19, -25004.47, -14671.33, 27983.04, -24392.39, 0.00, 0.00, 0.00
24, -10241.17, 19149.90, 14325.97, 17559.82, -11254.44, 16639.42, 44246.24, 28102.91, -7886.95, 3635.56, 24011.65, 26909.58, -25013.72, -14685.18, 27977.28, -24416.96, 0.00, 0.00, 0.00
25, -10215.48, 19179.49, 14344.90, 17574.08, -11233.88, 16615.79, 44197.62, 28070.53, -7886.95, 3635.56, 24011.65, 26909.58, -25013.72, -14685.18, 27977.28, -24416.96, 0.00, 0.00, 0.00
26, -10215.48, 19179.49, 14344.90, 17574.08, -11233.88, 16615.79, 44197.62, 28070.53, -7845.04, 3646.73, 24003.67, 26858.62, -24974.18, -14649.89, 27962.25, -24388.57, 0.00, 0.00, 0.00
27, -10214.12, 19178.60, 14344.66, 17589.21, -11233.49, 16632.25, 44232.07, 28087.63, -7845.04, 3646.73, 24003.67, 26858.62, -24974.18, -14649.89, 27962.25, -24388.57, 0.00, 0.00, 0.00
28, -10214.12, 19178.60, 14344.66, 17589.21, -11233.49, 16632.25, 44232.07, 28087.63, -7851.36, 3657.82, 24019.85, 26894.54, -24989.45, -14657.92, 27980.92, -24397.82, 0.00, 0.00, 0.00
29, -10208.60, 19192.08, 14337.84, 17575.80, -11240.40, 16617.58, 44196.35, 28069.01, -7851.36, 3657.82, 24019.85, 26894.54, -24989.45, -14657.92, 27980.92, -24397.82, 0.00, 0.00, 0.00
30, -10208.60, 19192.08, 14337.84, 17575.80, -11240.40, 16617.58, 44196.35, 28069.01, -7817.12, 3659.07, 24011.74, 26857.21, -24982.30, -14655.95, 27969.12, -24384.54, 0.00, 0.00, 0.00
31, -10214.63, 19165.88, 14330.15, 17579.40, -11244.67, 16640.83, 44247.76, 28098.71, -7817.12, 3659.07, 24011.74, 26857.21, -24982.30, -14655.95, 27969.12, -24384.54, 0.94, 0.15, -0.20
32, -10214.63, 19165.88, 14330.15, 17579.40, -11244.67, 16640.83, 44247.76, 28098.71, -7826.06, 3658.18, 24019.32, 26899.72, -24980.62, -14659.93, 27993.57, -24380.34, 0.00, 0.00, 0.00
33, -10198.05, 19194.18, 14354.89, 17590.91, -11226.12, 16622.21, 44207.50, 28077.68, -7826.06, 3658.18, 24019.32, 26899.72, -24980.62, -14659.93, 27993.57, -24380.34, 0.00, 0.00, 0.00
34, -10198.05, 19194.18, 14354.89, 17590.91, -11226.12, 16622.21, 44207.50, 28077.68, -7843.41, 3658.22, 24010.24, 26840.64, -24970.59, -14649.06, 27967.11, -24371.16, 0.00, 0.00, 0.00
35, -10226.91, 19156.25, 14329.93, 17582.73, -11245.14, 16645.57, 44260.72, 28102.69, -7843.41, 3658.22, 24010.24, 26840.64, -24970.59, -14649.06, 27967.11, -24371.16, 0.00, 0.00, 0.00
36, -10226.91, 19156.25, 14329.93, 17582.73, -11245.14, 16645.57, 44260.72, 28102.69, -7882.63, 3670.56, 24035.57, 26926.23, -24980.76, -14653.74, 28017.13, -24377.39, 0.00, 0.00, 0.00
37, -10227.04, 19157.10, 14322.66, 17571.87, -11251.29, 16640.22, 44256.23, 28097.97, -7882.63, 3670.56, 24035.57, 26926.23, -24980.76, -14653.74, 28017.13, -24377.39, 0.00, 0.00, 0.00
38, -10227.04, 19157.10, 14322.66, 17571.87, -11251.29, 16640.22, 44256.23, 28097.97, -7866.20, 3659.79, 24017.51, 26872.43, -24988.40, -14662.74, 27980.29, -24395.61, 0.00, 0.00, 0.00
39, -10230.21, 19145.86, 14319.13, 17570.71, -11252.65, 16647.69, 44290.16, 28115.72, -7866.20, 3659.79, 24017.51, 26872.43, -24988.40, -14662.74, 27980.29, -24395.61, 0.00, 0.00, 0.00
40, -10230.21, 19145.86, 14319.13, 17570.71, -11252.65, 16647.69, 44290.16, 28115.72, -7845.35, 3667.63, 24035.14, 26945.70, -24982.41, -14655.52, 28019.30, -24383.70, 0.00, 0.00, 0.00
41, -10217.47, 19157.59, 14317.19, 17565.54, -11258.86, 16643.31, 44286.88, 28105.31, -7845.35, 3667.63, 24035.14, 26945.70, -24982.41, -14655.52, 28019.30, -24383.70, 0.94, 0.15, -0.20
42, -10217.47, 19157.59, 14317.19, 17565.54, -11258.86, 16643.31, 44286.88, 28105.31, -7848.52, 3663.20, 24019.38, 26882.76, -24986.43, -14662.81, 27979.00, -24397.60, 0.00, 0.00, 0.00
43, -10233.95, 19158.15, 14316.07, 17569.14, -11260.94, 16651.04, 44310.63, 28116.33, -7848.52, 3663.20, 24019.38, 26882.76, -24986.43, -14662.81, 27979.00, -24397.60, 0.00, 0.00, 0.00
44, -10233.95, 19158.15, 14316.07, 17569.14, -11260.94, 16651.04, 44310.63, 28116.33, -7858.00, 3673.62, 24041.83, 26968.27, -24994.79, -14648.44, 28029.49, -24378.85, 0.00, 0.00, 0.00
45, -10215.04, 19170.29, 14329.70, 17579.56, -11242.70, 16630.50, 44285.31, 28097.68, -7858.00, 3673.62, 24041.83, 26968.27, -24994.79, -14648.44, 28029.49, -24378.85, 0.00, 0.00, 0.00
46, -10215.04, 19170.29, 14329.70, 17579.56, -11242.70, 16630.50, 44285.31, 28097.68, -7839.63, 3664.61, 24015.67, 26879.20, -24996.18, -14647.99, 27972.00, -24389.06, 0.00, 0.00, 0.00
47, -10220.38, 19171.56, 14329.46, 17583.00, -11250.73, 16631.57, 44281.46, 28094.73, -7839.63, 3664.61, 24015.67, 26879.20, -24996.18, -14647.99, 27972.00, -24389.06, 0.00, 0.00, 0.00
48, -10220.38, 19171.56, 14329.46, 17583.00, -11250.73, 16631.57, 44281.46, 28094.73, -7852.15, 3684.73, 24048.76, 26970.78, -25019.13, -14639.10, 28026.20, -24371.94, 0.00, 0.00, 0.00
49, -10209.63, 19175.27, 14335.11, 17581.52, -11245.81, 16624.40, 44277.55, 28089.10, -7852.15, 3684.73, 24048.76, 26970.78, -25019.13, -14639.10, 28026.20, -24371.94, 0.00, 0.00, 0.00
50, -10209.63, 19175.27, 14335.11, 17581.52, -11245.81, 16624.40, 44277.55, 28089.10, -7822.64, 3675.92, 24029.20, 26903.90, -25042.85, -14650.90, 27978.75, -24392.77, 0.00, 0.00, 0.00
51, -10206.43, 19176.57, 14336.41, 17587.67, -11248.89, 16618.01, 44261.26, 28079.20, -7822.64, 3675.92, 24029.20, 26903.90, -25042.85, -14650.90, 27978.75, -24392.77, 0.95, 0.16, -0.19
52, -10206.43, 19176.57, 14336.41, 17587.67, -11248.89, 16618.01, 44261.26, 28079.20, -7835.11, 3676.08, 24042.07, 26969.68, -25057.56, -14635.94, 28016.44, -24370.71, 0.00, 0.00, 0.00
53, -10216.04, 19172.01, 14335.13, 17583.63, -11245.94, 16614.34, 44264.97, 28072.43, -7835.11, 3676.08, 24042.07, 26969.68, -25057.56, -14635.94, 28016.44, -24370.71, 0.00, 0.00, 0.00
54, -10216.04, 19172.01, 14335.13, 17583.63, -11245.94, 16614.34, 44264.97, 28072.43, -7863.57, 3658.42, 24017.15, 26891.25, -25064.80, -14644.33, 27963.06, -24395.12, 0.00, 0.00, 0.00
55, -10203.55, 19177.51, 14349.26, 17598.42, -11231.39, 16597.42, 44222.70, 28047.82, -7863.57, 3658.42, 24017.15, 26891.25, -25064.80, -14644.33, 27963.06, -24395.12, 0.00, 0.00, 0.00
56, -10203.55, 19177.51, 14349.26, 17598.42, -11231.39, 16597.42, 44222.70, 28047.82, -7844.61, 3672.32, 24038.81, 26952.47, -25072.67, -14625.28, 28011.56, -24362.10, 0.00, 0.00, 0.00
57, -10199.93, 19180.37, 14343.25, 17594.49, -11235.42, 16611.06, 44251.33, 28058.32, -7844.61, 3672.32, 24038.81, 26952.47, -25072.67, -14625.28, 28011.56, -24362.10, 0.00, 0.00, 0.00
58, -10199.93, 19180.37, 14343.25, 17594.49, -11235.42, 16611.06, 44251.33, 28058.32, -7817.28, 3667.45, 24019.18, 26893.37, -25084.76, -14636.46, 27973.86, -24382.56, 0.00, 0.00, 0.00
59, -10199.12, 19190.51, 14349.89, 17603.12, -11237.47, 16605.54, 44221.38, 28046.61, -7817.28, 3667.45, 24019.18, 26893.37, -25084.76, -14636.46, 27973.86, -24382.56, 0.00, 0.00, 0.00
60, -10199.12, 19190.51, 14349.89, 17603.12, -11237.47, 16605.54, 44221.38, 28046.61, -7829.91, 3681.44, 24039.26, 26937.56, -25072.20, -14616.07, 28009.22, -24358.17, 0.00, 0.00, 0.00
61, -10182.69, 19206.29, 14370.47, 17615.21, -11219.64, 16603.50, 44226.19, 28047.84, -7829.91, 3681.44, 24039.26, 26937.56, -25072.20, -14616.07, 28009.22, -24358.17, 0.94, 0.16, -0.19
62, -10182.69, 19206.29, 14370.47, 17615.21, -11219.64, 16603.50, 44226.19, 28047.84, -7802.06, 3672.82, 24022.36, 26885.08, -25070.03, -14621.19, 27975.29, -24371.04, 0.00, 0.00, 0.00
63, -10191.08, 19186.56, 14357.06, 17609.75, -11231.46, 16607.05, 44208.13, 28047.71, -7802.06, 3672.82, 24022.36, 26885.08, -25070.03, -14621.19, 27975.29, -24371.04, 0.00, 0.00, 0.00
64, -10191.08, 19186.56, 14357.06, 17609.75, -11231.46, 16607.05, 44208.13, 28047.71, -7832.70, 3672.77, 24029.69, 26920.11, -25072.80, -14612.47, 28012.48, -24351.55, 0.00, 0.00, 0.00
65, -10190.45, 19181.75, 14367.16, 17611.45, -11223.62, 16620.76, 44250.06, 28067.53, -7832.70, 3672.77, 24029.69, 26920.11, -25072.80, -14612.47, 28012.48, -24351.55, 0.00, 0.00, 0.00
66, -10190.45, 19181.75, 14367.16, 17611.45, -11223.62, 16620.76, 44250.06, 28067.53, -7828.32, 3659.34, 24012.86, 26882.38, -25073.20, -14622.29, 27987.71, -24368.34, 0.00, 0.00, 0.00
67, -10193.29, 19183.88, 14352.41, 17600.77, -11229.02, 16615.53, 44223.66, 28055.19, -7828.32, 3659.34, 24012.86, 26882.38, -25073.20, -14622.29, 27987.71, -24368.34, 0.00, 0.00, 0.00
68, -10193.29, 19183.88, 14352.41, 17600.77, -11229.02, 16615.53, 44223.66, 28055.19, -7828.65, 3665.24, 24021.93, 26905.73, -25085.79, -14616.54, 28009.73, -24354.37, 0.00, 0.00, 0.00
69, -10198.88, 19179.79, 14338.93, 17588.63, -11237.43, 16630.30, 44276.03, 28079.24, -7828.65, 3665.24, 24021.93, 26905.73, -25085.79, -14616.54, 28009.73, -24354.37, 0.00, 0.00, 0.00
70, -10198.88, 19179.79, 14338.93, 17588.63, -11237.43, 16630.30, 44276.03, 28079.24, -7838.06, 3664.86, 24025.87, 26919.03, -25090.23, -14632.95, 28005.33, -24377.17, 0.00, 0.00, 0.00
71, -10210.05, 19166.51, 14336.83, 17581.35, -11248.16, 16619.17, 44248.54, 28066.95, -7838.06, 3664.86, 24025.87, 26919.03, -25090.23, -14632.95, 28005.33, -24377.17, 0.95, 0.16, -0.18
72, -10210.05, 19166.51, 14336.83, 17581.35, -11248.16, 16619.17, 44248.54, 28066.95, -7842.65, 3668.03, 24034.25, 26930.32, -25094.30, -14629.64, 28012.35, -24374.20, 0.00, 0.00, 0.00
73, -10206.72, 19171.72, 14335.87, 17577.17, -11245.48, 16624.85, 44281.91, 28080.54, -7842.65, 3668.03, 24034.25, 26930.32, -25094.30, -14629.64, 28012.35, -24374.20, 0.00, 0.00, 0.00
74, -10206.72, 19171.72, 14335.87, 17577.17, -11245.48, 16624.85, 44281.91, 28080.54, -7851.01, 3663.65, 24022.63, 26934.63, -25084.22, -14638.87, 27997.35, -24386.67, 0.00, 0.00, 0.00
75, -10187.41, 19184.03, 14347.54, 17580.05, -11234.68, 16600.46, 44222.86, 28052.89, -7851.01, 3663.65, 24022.63, 26934.63, -25084.22, -14638.87, 27997.35, -24386.67, 0.00, 0.00, 0.00
76, -10187.41, 19184.03, 14347.54, 17580.05, -11234.68, 16600.46, 44222.86, 28052.89, -7822.89, 3659.92, 24008.23, 26891.52, -25077.31, -14629.08, 27971.42, -24373.62, 0.00, 0.00, 0.00
77, -10198.54, 19170.22, 14342.80, 17589.01, -11244.27, 16626.97, 44270.47, 28081.19, -7822.89, 3659.92, 24008.23, 26891.52, -25077.31, -14629.08, 27971.42, -24373.62, 0.00, 0.00, 0.00
78, -10198.54, 19170.22, 14342.80, 17589.01, -11244.27, 16626.97, 44270.47, 28081.19, -7845.69, 3654.93, 24012.21, 26923.12, -25083.48, -14637.33, 27980.58, -24377.97, 0.00, 0.00, 0.00
79, -10187.21, 19184.88, 14358.07, 17589.66, -11231.08, 16609.87, 44225.32, 28059.87, -7845.69, 3654.93, 24012.21, 26923.12, -25083.48, -14637.33, 27980.58, -24377.97, 0.00, 0.00, 0.00
80, -10187.21, 19184.88, 14358.07, 17589.66, -11231.08, 16609.87, 44225.32, 28059.87, -7833.06, 3638.57, 23990.71, 26852.11, -25078.48, -14639.81, 27941.71, -24373.44, 0.00, 0.00, 0.00
81, -10201.51, 19157.99, 14335.16, 17573.90, -11242.95, 16644.47, 44286.07, 28099.07, -7833.06, 3638.57, 23990.71, 26852.11, -25078.48, -14639.81, 27941.71, -24373.44, 0.95, 0.16, -0.20
82, -10201.51, 19157.99, 14335.16, 17573.90, -11242.95, 16644.47, 44286.07, 28099.07, -7854.56, 3636.11, 23994.31, 26890.91, -25085.76, -14653.27, 27961.92, -24384.39, 0.00, 0.00, 0.00
83, -10197.58, 19175.65, 14348.17, 17576.79, -11233.07, 16625.79, 44253.97, 28082.87, -7854.56, 3636.11, 23994.31, 26890.91, -25085.76, -14653.27, 27961.92, -24384.39, 0.00, 0.00, 0.00
84, -10197.58, 19175.65, 14348.17, 17576.79, -11233.07, 16625.79, 44253.97, 28082.87, -7850.54, 3631.76, 23971.35, 26809.02, -25079.08, -14647.63, 27918.38, -24379.34, 0.00, 0.00, 0.00
85, -10215.22, 19162.62, 14329.93, 17569.25, -11244.33, 16634.82, 44285.71, 28095.92, -7850.54, 3631.76, 23971.35, 26809.02, -25079.08, -14647.63, 27918.38, -24379.34, 0.00, 0.00, 0.00
86, -10215.22, 19162.62, 14329.93, 17569.25, -11244.33, 16634.82, 44285.71, 28095.92, -7840.92, 3654.35, 23986.19, 26877.23, -25083.66, -14650.90, 27953.96, -24373.17, 0.00, 0.00, 0.00
87, -10206.07, 19182.96, 14337.03, 17573.90, -11236.71, 16627.95, 44261.75, 28092.10, -7840.92, 3654.35, 23986.19, 26877.23, -25083.66, -14650.90, 27953.96, -24373.17, 0.00, 0.00, 0.00
88, -10206.07, 19182.96, 14337.03, 17573.90, -11236.71, 16627.95, 44261.75, 28092.10, -7872.87, 3662.69, 23988.74, 26823.93, -25061.85, -14641.00, 27927.50, -24365.44, 0.00, 0.00, 0.00
89, -10210.01, 19180.57, 14340.25, 17584.27, -11243.96, 16641.50, 44284.06, 28108.95, -7872.87, 3662.69, 23988.74, 26823.93, -25061.85, -14641.00, 27927.50, -24365.44, 0.00, 0.00, 0.00
90, -10210.01, 19180.57, 14340.25, 17584.27, -11243.96, 16641.50, 44284.06, 28108.95, -7851.05, 3691.95, 24029.98, 26930.59, -25058.67, -14631.74, 27988.52, -24348.87, 0.00, 0.00, 0.00
91, -10199.08, 19187.16, 14343.07, 17580.59, -11239.91, 16634.06, 44271.59, 28098.15, -7851.05, 3691.95, 24029.98, 26930.59, -25058.67, -14631.74, 27988.52, -24348.87, 0.95, 0.16, -0.19
92, -10199.08, 19187.16, 14343.07, 17580.59, -11239.91, 16634.06, 44271.59, 28098.15, -7829.39, 3696.33, 24032.28, 26892.54, -25051.61, -14632.81, 27960.51, -24358.37, 0.00, 0.00, 0.00
93, -10208.13, 19181.80, 14345.44, 17593.37, -11244.67, 16650.84, 44297.89, 28122.16, -7829.39, 3696.33, 24032.28, 26892.54, -25051.61, -14632.81, 27960.51, -24358.37, 0.00, 0.00, 0.00
94, -10208.13, 19181.80, 14345.44, 17593.37, -11244.67, 16650.84, 44297.89, 28122.16, -7869.02, 3719.46, 24075.29, 27009.00, -25031.23, -14609.48, 28030.21, -24332.31, 0.00, 0.00, 0.00
95, -10189.62, 19200.04, 14373.47, 17609.58, -11224.17, 16645.16, 44290.89, 28118.72, -7869.02, 3719.46, 24075.29, 27009.00, -25031.23, -14609.48, 28030.21, -24332.31, 0.00, 0.00, 0.00
96, -10189.62, 19200.04, 14373.47, 17609.58, -11224.17, 16645.16, 44290.89, 28118.72, -7842.27, 3708.89, 24055.01, 26940.18, -25012.74, -14608.54, 27983.40, -24338.77, 0.00, 0.00, 0.00
97, -10172.32, 19211.12, 14383.21, 17624.78, -11210.56, 16638.88, 44270.94, 28109.15, -7842.27, 3708.89, 24055.01, 26940.18, -25012.74, -14608.54, 27983.40, -24338.77, 0.00, 0.00, 0.00
98, -10172.32, 19211.12, 14383.21, 17624.78, -11210.56, 16638.88, 44270.94, 28109.15, -7806.15, 3714.21, 24064.67, 27008.62, -25015.58, -14595.11, 28026.38, -24320.02, 0.00, 0.00, 0.00
99, -10170.60, 19213.56, 14380.31, 17621.29, -11204.15, 16628.89, 44258.40, 28095.43, -7806.15, 3714.21, 24064.67, 27008.62, -25015.58, -14595.11, 28026.38, -24320.02, 0.00, 0.00, 0.00
100, -10170.60, 19213.56, 14380.31, 17621.29, -11204.15, 16628.89, 44258.40, 28095.43, -7806.44, 3685.36, 24026.83, 26911.23, -25000.60, -14613.77, 27964.38, -24345.70, 0.00, 0.00, 0.00
101, -10167.70, 19226.50, 14390.57, 17633.78, -11198.27, 16616.13, 44211.10, 28074.86, -7806.44, 3685.36, 24026.83, 26911.23, -25000.60, -14613.77, 27964.38, -24345.70, 0.95, 0.16, -0.19
102, -10167.70, 19226.50, 14390.57, 17633.78, -11198.27, 16616.13, 44211.10, 28074.86, -7831.87, 3710.14, 24055.73, 26979.45, -24994.88, -14582.75, 28013.31, -24315.41, 0.00, 0.00, 0.00
103, -10173.26, 19221.76, 14378.72, 17630.38, -11208.13, 16626.68, 44221.63, 28079.15, -7831.87, 3710.14, 24055.73, 26979.45, -24994.88, -14582.75, 28013.31, -24315.41, 0.00, 0.00, 0.00
104, -10173.26, 19221.76, 14378.72, 17630.38, -11208.13, 16626.68, 44221.63, 28079.15, -7816.00, 3696.93, 24035.66, 26909.46, -25002.26, -14603.47, 27959.73, -24348.38, 0.00, 0.00, 0.00
105, -10160.39, 19224.76, 14382.16, 17630.27, -11205.33, 16606.56, 44163.27, 28044.60, -7816.00, 3696.93, 24035.66, 26909.46, -25002.26, -14603.47, 27959.73, -24348.38, 0.00, 0.00, 0.00
106, -10160.39, 19224.76, 14382.16, 17630.27, -11205.33, 16606.56, 44163.27, 28044.60, -7805.94, 3707.95, 24058.43, 26970.20, -25006.44, -14586.17, 28001.35, -24324.69, 0.00, 0.00, 0.00
107, -10161.82, 19234.08, 14386.23, 17631.10, -11203.28, 16633.34, 44198.27, 28064.47, -7805.94, 3707.95, 24058.43, 26970.20, -25006.44, -14586.17, 28001.35, -24324.69, 0.00, 0.00, 0.00
108, -10161.82, 19234.08, 14386.23, 17631.10, -11203.28, 16633.34, 44198.27, 28064.47, -7781.04, 3701.18, 24035.14, 26907.48, -24994.66, -14590.30, 27948.53, -24346.62, 0.00, 0.00, 0.00
109, -10137.16, 19252.05, 14398.57, 17641.70, -11193.49, 16619.30, 44142.84, 28035.21, -7781.04, 3701.18, 24035.14, 26907.48, -24994.66, -14590.30, 27948.53, -24346.62, 0.00, 0.00, 0.00
110, -10137.16, 19252.05, 14398.57, 17641.70, -11193.49, 16619.30, 44142.84, 28035.21, -7785.94, 3712.80, 24046.43, 26934.54, -24987.97, -14581.50, 27971.31, -24326.92, 0.00, 0.00, 0.00
111, -10136.87, 19268.19, 14406.46, 17641.65, -11188.84, 16627.13, 44161.12, 28036.04, -7785.94, 3712.80, 24046.43, 26934.54, -24987.97, -14581.50, 27971.31, -24326.92, 0.95, 0.16, -0.20
112, -10136.87, 19268.19, 14406.46, 17641.65, -11188.84, 16627.13, 44161.12, 28036.04, -7809.86, 3691.99, 24015.21, 26849.52, -24970.00, -14593.52, 27913.06, -24349.50, 0.00, 0.00, 0.00
113, -10116.33, 19269.73, 14427.00, 17663.69, -11172.36, 16597.42, 44080.72, 27989.63, -7809.86, 3691.99, 24015.21, 26849.52, -24970.00, -14593.52, 27913.06, -24349.50, 0.00, 0.00, 0.00
114, -10116.33, 19269.73, 14427.00, 17663.69, -11172.36, 16597.42, 44080.72, 27989.63, -7769.76, 3698.23, 24016.01, 26830.68, -24954.69, -14569.31, 27915.90, -24314.29, 0.00, 0.00, 0.00
115, -10107.35, 19270.13, 14427.45, 17671.49, -11167.94, 16598.83, 44084.03, 27984.83, -7769.76, 3698.23, 24016.01, 26830.68, -24954.69, -14569.31, 27915.90, -24314.29, 0.00, 0.00, 0.00
116, -10107.35, 19270.13, 14427.45, 17671.49, -11167.94, 16598.83, 44084.03, 27984.83, -7739.16, 3686.74, 23993.05, 26767.02, -24955.43, -14578.83, 27878.19, -24329.78, 0.00, 0.00, 0.00
117, -10107.08, 19279.00, 14423.51, 17674.39, -11176.74, 16588.68, 44024.15, 27953.29, -7739.16, 3686.74, 23993.05, 26767.02, -24955.43, -14578.83, 27878.19, -24329.78, 0.00, 0.00, 0.00
118, -10107.08, 19279.00, 14423.51, 17674.39, -11176.74, 16588.68, 44024.15, 27953.29, -7766.74, 3696.06, 24013.82, 26771.44, -24971.12, -14574.05, 27897.68, -24313.15, 0.00, 0.00, 0.00
119, -10137.95, 19248.74, 14392.20, 17646.77, -11201.71, 16629.03, 44094.58, 27997.48, -7766.74, 3696.06, 24013.82, 26771.44, -24971.12, -14574.05, 27897.68, -24313.15, 0.00, 0.00, 0.00
120, -10137.95, 19248.74, 14392.20, 17646.77, -11201.71, 16629.03, 44094.58, 27997.48, -7804.89, 3685.94, 24008.61, 26769.68, -24974.72, -14598.71, 27889.50, -24341.36, 0.00, 0.00, 0.00
121, -10139.13, 19255.07, 14404.00, 17643.91, -11191.09, 16603.48, 44032.40, 27965.54, -7804.89, 3685.94, 24008.61, 26769.68, -24974.72, -14598.71, 27889.50, -24341.36, 0.94, 0.16, -0.20
122, -10139.13, 19255.07, 14404.00, 17643.91, -11191.09, 16603.48, 44032.40, 27965.54, -7826.89, 3680.37, 24008.23, 26749.25, -24980.60, -14599.40, 27888.25, -24336.78, 0.00, 0.00, 0.00
123, -10159.34, 19215.73, 14370.79, 17620.08, -11213.09, 16609.65, 44062.51, 27973.27, -7826.89, 3680.37, 24008.23, 26749.25, -24980.60, -14599.40, 27888.25, -24336.78, 0.00, 0.00, 0.00
124, -10159.34, 19215.73, 14370.79, 17620.08, -11213.09, 16609.65, 44062.51, 27973.27, -7800.07, 3672.50, 24011.32, 26778.33, -24992.98, -14618.76, 27892.54, -24358.51, 0.00, 0.00, 0.00
125, -10155.74, 19227.48, 14371.25, 17613.22, -11215.72, 16582.87, 43999.30, 27940.78, -7800.07, 3672.50, 24011.32, 26778.33, -24992.98, -14618.76, 27892.54, -24358.51, 0.00, 0.00, 0.00
