%OpenBCI Raw EEG Data
%
%Sample Rate = 250.0 Hz
%First Column = SampleIndex
%Other Columns = EEG data in microvolts followed by Accel Data (in G) interleaved with Aux Data
0, 0.00, 0.00, 0.00, 0.00, 0.00, 0.00, 0.00, 0.00, -84337.04, -84602.42, -84882.96, -84506.16, -84347.03, -84615.09, -84403.42, 93749.98, 0.00, -0.04, 0.48
1, -168908.33, -168569.77, -168969.34, -168875.50, -169047.59, -169113.56, -104682.42, 187500.00, -84337.04, -84602.42, -84882.96, -84506.16, -84347.03, -84615.09, -84403.42, 93749.98, 0.00, 0.00, 0.00
2, -168908.33, -168569.77, -168969.34, -168875.50, -169047.59, -169113.56, -104682.42, 187500.00, -168864.47, -169176.17, -169709.06, -168980.67, -168663.38, -169130.19, -168764.61, 187500.00, 0.00, 0.00, 0.00
3, -168885.81, -168402.17, -168892.95, -168902.16, -169075.41, -168511.20, -104793.55, 187500.00, -168864.47, -169176.17, -169709.06, -168980.67, -168663.38, -169130.19, -168764.61, 187500.00, 0.00, 0.00, 0.00
4, -168885.81, -168402.17, -168892.95, -168902.16, -169075.41, -168511.20, -104793.55, 187500.00, -169264.30, -169050.50, -169631.89, -168898.47, -168729.42, -168706.11, -168821.84, 187500.00, 0.00, 0.00, 0.00
5, -168903.41, -168734.14, -168782.73, -168894.80, -168831.06, -168767.28, -104828.27, 187500.00, -169264.30, -169050.50, -169631.89, -168898.47, -168729.42, -168706.11, -168821.84, 187500.00, 0.00, 0.00, 0.00
6, -168903.41, -168734.14, -168782.73, -168894.80, -168831.06, -168767.28, -104828.27, 187500.00, -169419.88, -169028.25, -169537.59, -168960.73, -168667.78, -169108.39, -168727.33, 187500.00, 0.00, 0.00, 0.00
7, -168875.05, -168710.56, -168672.05, -168900.17, -168963.73, -168948.05, -104894.03, 187500.00, -169419.88, -169028.25, -169537.59, -168960.73, -168667.78, -169108.39, -168727.33, 187500.00, -0.00, -0.06, 0.96
8, -168875.05, -168710.56, -168672.05, -168900.17, -168963.73, -168948.05, -104894.03, 187500.00, -169258.02, -169021.77, -169449.83, -168897.31, -168713.33, -169354.63, -168816.38, 187500.00, 0.00, 0.00, 0.00
9, -168890.53, -168690.38, -168498.94, -168859.69, -169137.03, -169244.67, -104945.28, 187500.00, -169258.02, -169021.77, -169449.83, -168897.31, -168713.33, -169354.63, -168816.38, 187500.00, 0.00, 0.00, 0.00
10, -168890.53, -168690.38, -168498.94, -168859.69, -169137.03, -169244.67, -104945.28, 187500.00, -169116.41, -169221.23, -169377.80, -168987.45, -168624.80, -169887.64, -168720.45, 187500.00, 0.00, 0.00, 0.00
11, -168876.72, -168602.83, -168257.17, -168887.78, -169077.47, -169484.64, -105014.82, 187500.00, -169116.41, -169221.23, -169377.80, -168987.45, -168624.80, -169887.64, -168720.45, 187500.00, 0.00, 0.00, 0.00
12, -168876.72, -168602.83, -168257.17, -168887.78, -169077.47, -169484.64, -105014.82, 187500.00, -168966.08, -169051.36, -169303.73, -168847.17, -168696.56, -169589.50, -168811.30, 187500.00, 0.00, 0.00, 0.00
13, -168887.20, -168594.78, -168659.19, -168844.69, -168987.03, -170136.91, -105098.30, 187500.00, -168966.08, -169051.36, -169303.73, -168847.17, -168696.56, -169589.50, -168811.30, 187500.00, 0.00, 0.00, 0.00
14, -168887.20, -168594.78, -168659.19, -168844.69, -168987.03, -170136.91, -105098.30, 187500.00, -168829.09, -169090.52, -169233.77, -168978.00, -168649.61, -169768.06, -168710.11, 187500.00, 0.00, 0.00, 0.00
15, -168872.45, -168497.55, -169295.86, -168869.02, -168921.53, -170456.28, -105135.72, 187500.00, -168829.09, -169090.52, -169233.77, -168978.00, -168649.61, -169768.06, -168710.11, 187500.00, 0.00, 0.00, 0.00
16, -168872.45, -168497.55, -169295.86, -168869.02, -168921.53, -170456.28, -105135.72, 187500.00, -168527.56, -168939.94, -169012.83, -168856.89, -168708.81, -169446.25, -168807.50, 187500.00, 0.00, 0.00, 0.00
17, -168880.50, -168609.16, -169419.13, -168868.91, -169212.31, -170374.88, -105223.29, 187500.00, -168527.56, -168939.94, -169012.83, -168856.89, -168708.81, -169446.25, -168807.50, 187500.00, -0.00, -0.07, 0.96
18, -168880.50, -168609.16, -169419.13, -168868.91, -169212.31, -170374.88, -105223.29, 187500.00, -168466.39, -169222.92, -169136.98, -169000.66, -168617.80, -169631.81, -168693.34, 187500.00, 0.00, 0.00, 0.00
19, -168870.67, -168765.50, -169303.27, -168877.69, -169038.95, -170260.67, -105237.42, 187500.00, -168466.39, -169222.92, -169136.98, -169000.66, -168617.80, -169631.81, -168693.34, 187500.00, 0.00, 0.00, 0.00
20, -168870.67, -168765.50, -169303.27, -168877.69, -169038.95, -170260.67, -105237.42, 187500.00, -168714.92, -169083.19, -169788.00, -168824.27, -168676.78, -169304.52, -168800.44, 187500.00, 0.00, 0.00, 0.00
21, -168883.47, -168709.52, -169237.25, -168827.61, -169061.48, -170183.34, -105365.36, 187500.00, -168714.92, -169083.19, -169788.00, -168824.27, -168676.78, -169304.52, -168800.44, 187500.00, 0.00, 0.00, 0.00
22, -168883.47, -168709.52, -169237.25, -168827.61, -169061.48, -170183.34, -105365.36, 187500.00, -169040.81, -169158.38, -169956.69, -168984.22, -168628.39, -169517.02, -168722.70, 187500.00, 0.00, 0.00, 0.00
23, -168868.05, -168686.17, -169129.09, -168863.84, -168829.67, -170112.23, -105384.38, 187500.00, -169040.81, -169158.38, -169956.69, -168984.22, -168628.39, -169517.02, -168722.70, 187500.00, 0.00, 0.00, 0.00
24, -168868.05, -168686.17, -169129.09, -168863.84, -168829.67, -170112.23, -105384.38, 187500.00, -169448.33, -168989.23, -169882.78, -168835.61, -168685.75, -169208.58, -168800.55, 187500.00, 0.00, 0.00, 0.00
25, -168878.94, -168610.38, -169070.48, -168820.22, -169268.77, -170028.47, -105525.29, 187500.00, -169448.33, -168989.23, -169882.78, -168835.61, -168685.75, -169208.58, -168800.55, 187500.00, 0.00, 0.00, 0.00
26, -168878.94, -168610.38, -169070.48, -168820.22, -169268.77, -170028.47, -105525.29, 187500.00, -169375.75, -169202.14, -169843.75, -169003.97, -168643.69, -169409.31, -168749.73, 187500.00, 0.00, 0.00, 0.00
27, -168875.36, -168623.86, -168976.09, -168833.89, -169078.89, -169984.67, -105551.52, 187500.00, -169375.75, -169202.14, -169843.75, -169003.97, -168643.69, -169409.31, -168749.73, 187500.00, -0.01, -0.08, 0.96
28, -168875.36, -168623.86, -168976.09, -168833.89, -169078.89, -169984.67, -105551.52, 187500.00, -169248.00, -169106.13, -169793.30, -168850.84, -168696.97, -169150.98, -168796.36, 187500.00, 0.00, 0.00, 0.00
29, -168869.95, -168550.59, -168944.25, -168811.77, -169200.86, -169903.89, -105729.78, 187500.00, -169248.00, -169106.13, -169793.30, -168850.84, -168696.97, -169150.98, -168796.36, 187500.00, 0.00, 0.00, 0.00
30, -168869.95, -168550.59, -168944.25, -168811.77, -169200.86, -169903.89, -105729.78, 187500.00, -169154.47, -169157.30, -169764.89, -168996.27, -168648.13, -169331.06, -168762.84, 187500.00, 0.00, 0.00, 0.00
31, -168877.91, -168587.25, -168854.14, -168829.78, -168971.81, -169879.67, -105756.52, 187500.00, -169154.47, -169157.30, -169764.89, -168996.27, -168648.13, -169331.06, -168762.84, 187500.00, 0.00, 0.00, 0.00
32, -168877.91, -168587.25, -168854.14, -168829.78, -168971.81, -169879.67, -105756.52, 187500.00, -169026.28, -169038.34, -169713.14, -168869.59, -168683.20, -169115.61, -168776.47, 187500.00, 0.00, 0.00, 0.00
33, -168863.11, -168494.75, -168816.66, -168821.58, -169101.41, -169779.48, -105933.72, 187500.00, -169026.28, -169038.34, -169713.14, -168869.59, -168683.20, -169115.61, -168776.47, 187500.00, 0.00, 0.00, 0.00
34, -168863.11, -168494.75, -168816.66, -168821.58, -169101.41, -169779.48, -105933.72, 187500.00, -168931.23, -169169.28, -169683.33, -168992.38, -168677.19, -169237.92, -168759.08, 187500.00, 0.00, 0.00, 0.00
35, -168874.75, -168526.27, -168717.98, -168837.53, -168776.66, -169761.52, -105948.43, 187500.00, -168931.23, -169169.28, -169683.33, -168992.38, -168677.19, -169237.92, -168759.08, 187500.00, 0.00, 0.00, 0.00
36, -168874.75, -168526.27, -168717.98, -168837.53, -168776.66, -169761.52, -105948.43, 187500.00, -168793.86, -169129.09, -169620.19, -168884.08, -168667.42, -169063.67, -168765.44, 187500.00, 0.00, 0.00, 0.00
37, -168862.22, -168425.55, -168675.52, -168816.19, -169238.70, -169649.16, -106106.09, 187500.00, -168793.86, -169129.09, -169620.19, -168884.08, -168667.42, -169063.67, -168765.44, 187500.00, -0.00, -0.07, 0.97
38, -168862.22, -168425.55, -168675.52, -168816.19, -169238.70, -169649.16, -106106.09, 187500.00, -168645.84, -169120.83, -169581.92, -168943.47, -168676.94, -169120.64, -168778.95, 187500.00, 0.00, 0.00, 0.00
39, -168884.33, -168813.95, -168586.44, -168827.34, -169079.77, -169635.70, -106122.34, 187500.00, -168645.84, -169120.83, -169581.92, -168943.47, -168676.94, -169120.64, -168778.95, 187500.00, 0.00, 0.00, 0.00
40, -168884.33, -168813.95, -168586.44, -168827.34, -169079.77, -169635.70, -106122.34, 187500.00, -168366.52, -169048.86, -169520.08, -168889.08, -168647.91, -168922.67, -168767.84, 187500.00, 0.00, 0.00, 0.00
41, -168857.91, -168710.30, -168466.20, -168841.86, -169182.27, -169502.22, -106270.05, 187500.00, -168366.52, -169048.86, -169520.08, -168889.08, -168647.91, -168922.67, -168767.84, 187500.00, 0.00, 0.00, 0.00
42, -168857.91, -168710.30, -168466.20, -168841.86, -169182.27, -169502.22, -106270.05, 187500.00, -168592.78, -169110.14, -169465.09, -168907.56, -168684.27, -168746.17, -168772.30, 187500.00, 0.00, 0.00, 0.00
43, -168866.02, -168736.20, -168199.36, -168871.17, -168853.63, -169460.17, -106252.55, 187500.00, -168592.78, -169110.14, -169465.09, -168907.56, -168684.27, -168746.17, -168772.30, 187500.00, 0.00, 0.00, 0.00
44, -168866.02, -168736.20, -168199.36, -168871.17, -168853.63, -169460.17, -106252.55, 187500.00, -168810.20, -169133.45, -169363.30, -168882.73, -168621.20, -169009.92, -168717.48, 187500.00, 0.00, 0.00, 0.00
45, -168843.00, -168586.73, -168581.30, -168856.45, -169113.14, -169289.77, -106335.73, 187500.00, -168810.20, -169133.45, -169363.30, -168882.73, -168621.20, -169009.92, -168717.48, 187500.00, 0.00, 0.00, 0.00
46, -168843.00, -168586.73, -168581.30, -168856.45, -169113.14, -169289.77, -106335.73, 187500.00, -169173.98, -169032.33, -169279.34, -168896.25, -168649.52, -169460.89, -168770.89, 187500.00, 0.00, 0.00, 0.00
47, -168862.17, -168620.58, -169186.58, -168821.67, -169060.28, -169255.05, -106339.65, 187500.00, -169173.98, -169032.33, -169279.34, -168896.25, -168649.52, -169460.89, -168770.89, 187500.00, 0.00, -0.08, 0.97
48, -168862.17, -168620.58, -169186.58, -168821.67, -169060.28, -169255.05, -106339.65, 187500.00, -169415.08, -169013.52, -169214.17, -168907.88, -168611.11, -169755.08, -168711.88, 187500.00, 0.00, 0.00, 0.00
49, -168844.45, -168511.86, -169418.39, -168829.97, -169113.34, -168755.06, -106466.67, 187500.00, -169415.08, -169013.52, -169214.17, -168907.88, -168611.11, -169755.08, -168711.88, 187500.00, 0.00, 0.00, 0.00
50, -168844.45, -168511.86, -169418.39, -168829.97, -169113.34, -168755.06, -106466.67, 187500.00, -169295.58, -169018.77, -169102.55, -168858.73, -168681.95, -169596.45, -168778.47, 187500.00, 0.00, 0.00, 0.00
51, -168855.02, -168528.48, -169312.41, -168844.33, -168891.11, -168701.84, -106509.70, 187500.00, -169295.58, -169018.77, -169102.55, -168858.73, -168681.95, -169596.45, -168778.47, 187500.00, 0.00, 0.00, 0.00
52, -168855.02, -168528.48, -169312.41, -168844.33, -168891.11, -168701.84, -106509.70, 187500.00, -169142.27, -169179.19, -168981.63, -168921.05, -168635.88, -169661.33, -168687.02, 187500.00, 0.00, 0.00, 0.00
53, -168834.52, -168345.67, -169210.45, -168860.50, -168973.89, -168887.92, -106586.30, 187500.00, -169142.27, -169179.19, -168981.63, -168921.05, -168635.88, -169661.33, -168687.02, 187500.00, 0.00, 0.00, 0.00
54, -168834.52, -168345.67, -169210.45, -168860.50, -168973.89, -168887.92, -106586.30, 187500.00, -168982.38, -169034.70, -169530.20, -168853.23, -168673.95, -169414.42, -168775.83, 187500.00, 0.00, 0.00, 0.00
55, -168853.97, -168669.63, -169110.66, -168825.48, -169102.05, -169192.39, -106633.51, 187500.00, -168982.38, -169034.70, -169530.20, -168853.23, -168673.95, -169414.42, -168775.83, 187500.00, 0.00, 0.00, 0.00
56, -168853.97, -168669.63, -169110.66, -168825.48, -169102.05, -169192.39, -106633.51, 187500.00, -168838.19, -169055.58, -169930.89, -168937.16, -168593.14, -169542.98, -168675.13, 187500.00, 0.00, 0.00, 0.00
57, -168837.67, -168706.05, -169022.72, -168834.77, -169067.58, -169435.89, -106720.16, 187500.00, -168838.19, -169055.58, -169930.89, -168937.16, -168593.14, -169542.98, -168675.13, 187500.00, -0.00, -0.08, 0.96
58, -168837.67, -168706.05, -169022.72, -168834.77, -169067.58, -169435.89, -106720.16, 187500.00, -168663.63, -168971.36, -169868.78, -168808.92, -168667.47, -169274.84, -168773.03, 187500.00, 0.00, 0.00, 0.00
59, -168854.06, -168693.73, -168937.70, -168812.13, -168973.27, -170121.52, -106807.54, 187500.00, -168663.63, -168971.36, -169868.78, -168808.92, -168667.47, -169274.84, -168773.03, 187500.00, 0.00, 0.00, 0.00
60, -168854.06, -168693.73, -168937.70, -168812.13, -168973.27, -170121.52, -106807.54, 187500.00, -168393.86, -169211.28, -169807.45, -168937.97, -168615.34, -169455.23, -168676.77, 187500.00, 0.00, 0.00, 0.00
61, -168830.23, -168615.44, -168841.41, -168814.19, -168924.52, -170415.89, -106863.24, 187500.00, -168393.86, -169211.28, -169807.45, -168937.97, -168615.34, -169455.23, -168676.77, 187500.00, 0.00, 0.00, 0.00
62, -168830.23, -168615.44, -168841.41, -168814.19, -168924.52, -170415.89, -106863.24, 187500.00, -168629.00, -169059.61, -169740.22, -168835.66, -168689.23, -169153.95, -168773.19, 187500.00, 0.00, 0.00, 0.00
63, -168848.02, -168588.97, -168770.58, -168795.16, -169189.16, -170362.89, -106968.36, 187500.00, -168629.00, -169059.61, -169740.22, -168835.66, -168689.23, -169153.95, -168773.19, 187500.00, 0.00, 0.00, 0.00
64, -168848.02, -168588.97, -168770.58, -168795.16, -169189.16, -170362.89, -106968.36, 187500.00, -168922.09, -169135.17, -169689.09, -168989.02, -168594.27, -169362.58, -168691.66, 187500.00, 0.00, 0.00, 0.00
65, -168830.97, -168543.17, -168678.80, -168804.97, -169055.95, -170270.31, -107015.73, 187500.00, -168922.09, -169135.17, -169689.09, -168989.02, -168594.27, -169362.58, -168691.66, 187500.00, 0.00, 0.00, 0.00
66, -168830.97, -168543.17, -168678.80, -168804.97, -169055.95, -170270.31, -107015.73, 187500.00, -169393.42, -168992.19, -169635.92, -168810.89, -168685.45, -169058.64, -168764.56, 187500.00, 0.00, 0.00, 0.00
67, -168836.84, -168514.25, -168633.67, -168774.89, -169098.66, -170220.11, -107159.18, 187500.00, -169393.42, -168992.19, -169635.92, -168810.89, -168685.45, -169058.64, -168764.56, 187500.00, -0.01, -0.08, 0.97
68, -168836.84, -168514.25, -168633.67, -168774.89, -169098.66, -170220.11, -107159.18, 187500.00, -169408.02, -169073.44, -169602.91, -168989.42, -168603.56, -169292.64, -168700.13, 187500.00, 0.00, 0.00, 0.00
69, -168831.81, -168488.66, -168552.11, -168794.44, -168937.92, -170161.08, -107208.28, 187500.00, -169408.02, -169073.44, -169602.91, -168989.42, -168603.56, -169292.64, -168700.13, 187500.00, 0.00, 0.00, 0.00
70, -168831.81, -168488.66, -168552.11, -168794.44, -168937.92, -170161.08, -107208.28, 187500.00, -169283.28, -168924.27, -169556.23, -168825.83, -168702.77, -168999.09, -168759.05, 187500.00, 0.00, 0.00, 0.00
71, -168845.83, -168507.30, -168487.56, -168784.39, -168998.94, -170086.02, -107354.93, 187500.00, -169283.28, -168924.27, -169556.23, -168825.83, -168702.77, -168999.09, -168759.05, 187500.00, 0.00, 0.00, 0.00
72, -168845.83, -168507.30, -168487.56, -168784.39, -168998.94, -170086.02, -107354.93, 187500.00, -169173.58, -169192.89, -169512.89, -168992.77, -168607.63, -169203.58, -168698.33, 187500.00, 0.00, 0.00, 0.00
73, -168838.03, -168759.89, -168165.02, -168820.75, -168736.89, -170021.44, -107357.26, 187500.00, -169173.58, -169192.89, -169512.89, -168992.77, -168607.63, -169203.58, -168698.33, 187500.00, 0.00, 0.00, 0.00
74, -168838.03, -168759.89, -168165.02, -168820.75, -168736.89, -170021.44, -107357.26, 187500.00, -169015.25, -169048.14, -169430.33, -168807.52, -168642.63, -168710.53, -168749.19, 187500.00, 0.00, 0.00, 0.00
75, -168833.27, -168675.41, -168529.69, -168792.30, -169198.47, -169912.75, -107479.19, 187500.00, -169015.25, -169048.14, -169430.33, -168807.52, -168642.63, -168710.53, -168749.19, 187500.00, 0.00, 0.00, 0.00
76, -168833.27, -168675.41, -168529.69, -168792.30, -169198.47, -169912.75, -107479.19, 187500.00, -168883.05, -169068.17, -169365.91, -168929.14, -168591.58, -168935.08, -168691.53, 187500.00, 0.00, 0.00, 0.00
77, -168831.22, -168687.52, -169101.77, -168825.25, -168991.66, -169852.05, -107463.48, 187500.00, -168883.05, -169068.17, -169365.91, -168929.14, -168591.58, -168935.08, -168691.53, 187500.00, -0.00, -0.08, 0.97
78, -168831.22, -168687.52, -169101.77, -168825.25, -168991.66, -169852.05, -107463.48, 187500.00, -168729.47, -168910.14, -169288.47, -168788.70, -168637.84, -169055.58, -168742.05, 187500.00, 0.00, 0.00, 0.00
79, -168824.83, -168579.31, -169421.36, -168791.06, -169099.44, -169735.50, -107611.17, 187500.00, -168729.47, -168910.14, -169288.47, -168788.70, -168637.84, -169055.58, -168742.05, 187500.00, 0.00, 0.00, 0.00
80, -168824.83, -168579.31, -169421.36, -168791.06, -169099.44, -169735.50, -107611.17, 187500.00, -168472.20, -169144.98, -169246.16, -168913.45, -168613.38, -169800.78, -168714.36, 187500.00, 0.00, 0.00, 0.00
81, -168830.75, -168605.64, -169309.11, -168796.23, -168771.48, -169703.94, -107615.20, 187500.00, -168472.20, -169144.98, -169246.16, -168913.45, -168613.38, -169800.78, -168714.36, 187500.00, 0.00, 0.00, 0.00
82, -168830.75, -168605.64, -169309.11, -168796.23, -168771.48, -169703.94, -107615.20, 187500.00, -168427.45, -169085.58, -169175.03, -168815.02, -168622.06, -169664.84, -168731.56, 187500.00, 0.00, 0.00, 0.00
83, -168814.92, -168484.38, -169250.42, -168787.38, -169197.36, -169584.80, -107767.03, 187500.00, -168427.45, -169085.58, -169175.03, -168815.02, -168622.06, -169664.84, -168731.56, 187500.00, 0.00, 0.00, 0.00
84, -168814.92, -168484.38, -169250.42, -168787.38, -169197.36, -169584.80, -107767.03, 187500.00, -168721.95, -169092.23, -169096.28, -168908.78, -168623.56, -169737.89, -168727.39, 187500.00, 0.00, 0.00, 0.00
85, -168832.88, -168519.55, -169146.48, -168808.11, -169025.19, -169564.22, -107775.08, 187500.00, -168721.95, -169092.23, -169096.28, -168908.78, -168623.56, -169737.89, -168727.39, 187500.00, 0.00, 0.00, 0.00
86, -168832.88, -168519.55, -169146.48, -168808.11, -169025.19, -169564.22, -107775.08, 187500.00, -169035.47, -169014.67, -168905.13, -168836.05, -168610.25, -169589.61, -168721.75, 187500.00, 0.00, -0.07, 0.97
87, -168816.23, -168371.73, -169082.11, -168811.95, -169125.19, -169417.56, -107909.81, 187500.00, -169035.47, -169014.67, -168905.13, -168836.05, -168610.25, -169589.61, -168721.75, 187500.00, 0.00, 0.00, 0.00
88, -168816.23, -168371.73, -169082.11, -168811.95, -169125.19, -169417.56, -107909.81, 187500.00, -169420.27, -169090.78, -169435.97, -168884.23, -168629.75, -169578.80, -168721.27, 187500.00, 0.00, 0.00, 0.00
89, -168827.38, -168749.83, -168974.73, -168789.02, -168808.58, -169386.13, -107908.79, 187500.00, -169420.27, -169090.78, -169435.97, -168884.23, -168629.75, -169578.80, -168721.27, 187500.00, 0.00, 0.00, 0.00
90, -168827.38, -168749.83, -168974.73, -168789.02, -168808.58, -169386.13, -107908.79, 187500.00, -169290.30, -169115.59, -169890.66, -168858.28, -168591.78, -169501.83, -168688.94, 187500.00, 0.00, 0.00, 0.00
91, -168813.53, -168667.11, -168921.92, -168776.16, -169147.20, -169264.59, -108055.91, 187500.00, -169290.30, -169115.59, -169890.66, -168858.28, -168591.78, -169501.83, -168688.94, 187500.00, 0.00, 0.00, 0.00
92, -168813.53, -168667.11, -168921.92, -168776.16, -169147.20, -169264.59, -108055.91, 187500.00, -169183.72, -169062.67, -169858.75, -168871.94, -168640.31, -169450.69, -168731.41, 187500.00, 0.00, 0.00, 0.00
93, -168845.45, -168724.28, -168841.73, -168763.20, -169082.00, -169269.67, -108101.52, 187500.00, -169183.72, -169062.67, -169858.75, -168871.94, -168640.31, -169450.69, -168731.41, 187500.00, 0.00, 0.00, 0.00
94, -168845.45, -168724.28, -168841.73, -168763.20, -169082.00, -169269.67, -108101.52, 187500.00, -169062.80, -169050.03, -169808.81, -168887.00, -168588.09, -169462.03, -168702.22, 187500.00, 0.00, 0.00, 0.00
95, -168807.92, -168619.72, -168795.52, -168772.09, -169165.70, -169153.44, -108246.43, 187500.00, -169062.80, -169050.03, -169808.81, -168887.00, -168588.09, -169462.03, -168702.22, 187500.00, 0.00, 0.00, 0.00
96, -168807.92, -168619.72, -168795.52, -168772.09, -169165.70, -169153.44, -108246.43, 187500.00, -168960.83, -169051.20, -169774.66, -168850.03, -168670.19, -169344.52, -168761.67, 187500.00, -0.00, -0.07, 0.97
97, -168829.78, -168664.89, -168715.45, -168763.91, -169004.17, -169140.58, -108298.53, 187500.00, -168960.83, -169051.20, -169774.66, -168850.03, -168670.19, -169344.52, -168761.67, 187500.00, 0.00, 0.00, 0.00
98, -168829.78, -168664.89, -168715.45, -168763.91, -169004.17, -169140.58, -108298.53, 187500.00, -168842.75, -169172.84, -169725.97, -168913.16, -168580.25, -169422.11, -168703.36, 187500.00, 0.00, 0.00, 0.00
99, -168800.17, -168567.48, -168658.97, -168780.03, -169049.72, -168567.48, -108427.73, 187500.00, -168842.75, -169172.84, -169725.97, -168913.16, -168580.25, -169422.11, -168703.36, 187500.00, 0.00, 0.00, 0.00
100, -168800.17, -168567.48, -168658.97, -168780.03, -169049.72, -168567.48, -108427.73, 187500.00, -168725.25, -169060.20, -169679.55, -168852.89, -168680.23, -169237.66, -168755.13, 187500.00, 0.00, 0.00, 0.00
101, -168828.31, -168591.41, -168576.53, -168779.84, -168895.63, -168690.89, -108498.80, 187500.00, -168725.25, -169060.20, -169679.55, -168852.89, -168680.23, -169237.66, -168755.13, 187500.00, 0.00, 0.00, 0.00
102, -168828.31, -168591.41, -168576.53, -168779.84, -168895.63, -168690.89, -108498.80, 187500.00, -168395.42, -169084.13, -169612.05, -168931.28, -168562.91, -169354.63, -168677.80, 187500.00, 0.00, 0.00, 0.00
103, -168799.45, -168479.67, -168468.73, -168790.47, -168927.33, -168900.45, -108581.38, 187500.00, -168395.42, -169084.13, -169612.05, -168931.28, -168562.91, -169354.63, -168677.80, 187500.00, 0.00, 0.00, 0.00
104, -168799.45, -168479.67, -168468.73, -168790.47, -168927.33, -168900.45, -108581.38, 187500.00, -168490.86, -168964.83, -169536.59, -168784.77, -168646.56, -169087.44, -168742.14, 187500.00, 0.00, 0.00, 0.00
105, -168798.16, -168465.83, -168140.45, -168801.28, -169095.97, -169199.13, -108639.16, 187500.00, -168490.86, -168964.83, -169536.59, -168784.77, -168646.56, -169087.44, -168742.14, 187500.00, 0.00, 0.00, 0.00
106, -168798.16, -168465.83, -168140.45, -168801.28, -169095.97, -169199.13, -108639.16, 187500.00, -168733.89, -169143.09, -169452.02, -168886.84, -168567.17, -169225.25, -168630.86, 187500.00, 0.00, -0.07, 0.97
107, -168781.03, -168322.84, -168435.47, -168810.03, -169010.94, -169420.50, -108675.48, 187500.00, -168733.89, -169143.09, -169452.02, -168886.84, -168567.17, -169225.25, -168630.86, 187500.00, 0.00, 0.00, 0.00
108, -168781.03, -168322.84, -168435.47, -168810.03, -169010.94, -169420.50, -108675.48, 187500.00, -169047.53, -168967.33, -169361.64, -168771.98, -168621.63, -168905.78, -168730.56, 187500.00, 0.00, 0.00, 0.00
109, -168800.38, -168558.97, -169011.92, -168773.97, -168932.27, -170052.33, -108741.88, 187500.00, -169047.53, -168967.33, -169361.64, -168771.98, -168621.63, -168905.78, -168730.56, 187500.00, 0.00, 0.00, 0.00
110, -168800.38, -168558.97, -169011.92, -168773.97, -168932.27, -170052.33, -108741.88, 187500.00, -169388.91, -169009.56, -169289.64, -168896.77, -168534.22, -169074.48, -168632.13, 187500.00, 0.00, 0.00, 0.00
111, -168789.75, -168689.77, -169346.58, -168777.22, -168844.25, -170383.41, -108782.63, 187500.00, -169388.91, -169009.56, -169289.64, -168896.77, -168534.22, -169074.48, -168632.13, 187500.00, 0.00, 0.00, 0.00
112, -168789.75, -168689.77, -169346.58, -168777.22, -168844.25, -170383.41, -108782.63, 187500.00, -169251.47, -168884.59, -169220.94, -168744.36, -168610.44, -168503.53, -168723.28, 187500.00, 0.00, 0.00, 0.00
113, -168794.47, -168638.41, -169264.80, -168767.73, -169165.42, -170308.91, -108884.53, 187500.00, -169251.47, -168884.59, -169220.94, -168744.36, -168610.44, -168503.53, -168723.28, 187500.00, 0.00, 0.00, 0.00
114, -168794.47, -168638.41, -169264.80, -168767.73, -169165.42, -170308.91, -108884.53, 187500.00, -169127.63, -169159.61, -169164.86, -168893.67, -168536.13, -168980.48, -168644.33, 187500.00, 0.00, 0.00, 0.00
115, -168785.19, -168599.27, -169161.95, -168779.89, -169009.25, -170221.11, -108912.73, 187500.00, -169127.63, -169159.61, -169164.86, -168893.67, -168536.13, -168980.48, -168644.33, 187500.00, 0.00, 0.00, 0.00
116, -168785.19, -168599.27, -169161.95, -168779.89, -169009.25, -170221.11, -108912.73, 187500.00, -168984.72, -169000.91, -168980.97, -168753.19, -168621.11, -169089.63, -168716.80, 187500.00, 0.00, -0.07, 0.97
117, -168797.17, -168536.50, -169098.97, -168756.53, -169060.23, -170141.30, -109042.09, 187500.00, -168984.72, -169000.91, -168980.97, -168753.19, -168621.11, -169089.63, -168716.80, 187500.00, 0.00, 0.00, 0.00
118, -168797.17, -168536.50, -169098.97, -168756.53, -169060.23, -170141.30, -109042.09, 187500.00, -168861.25, -169063.27, -169040.19, -168923.75, -168557.61, -169851.45, -168641.25, 187500.00, 0.00, 0.00, 0.00
119, -168786.17, -168511.56, -168985.19, -168779.88, -168782.89, -170062.17, -109043.54, 187500.00, -168861.25, -169063.27, -169040.19, -168923.75, -168557.61, -169851.45, -168641.25, 187500.00, 0.00, 0.00, 0.00
120, -168786.17, -168511.56, -168985.19, -168779.88, -168782.89, -170062.17, -109043.54, 187500.00, -168707.78, -168896.86, -169690.19, -168755.59, -168598.39, -169558.58, -168709.44, 187500.00, 0.00, 0.00, 0.00
121, -168775.80, -168425.86, -168923.73, -168738.34, -169171.97, -169970.22, -109181.77, 187500.00, -168707.78, -168896.86, -169690.19, -168755.59, -168598.39, -169558.58, -168709.44, 187500.00, 0.00, 0.00, 0.00
122, -168775.80, -168425.86, -168923.73, -168738.34, -169171.97, -169970.22, -109181.77, 187500.00, -168526.73, -169140.77, -169868.84, -168907.66, -168547.91, -169746.98, -168654.41, 187500.00, 0.00, 0.00, 0.00
123, -168782.31, -168421.14, -168827.41, -168767.95, -168985.53, -169927.67, -109197.99, 187500.00, -168526.73, -169140.77, -169868.84, -168907.66, -168547.91, -169746.98, -168654.41, 187500.00, 0.00, 0.00, 0.00
124, -168782.31, -168421.14, -168827.41, -168767.95, -168985.53, -169927.67, -109197.99, 187500.00, -168325.19, -169043.73, -169805.23, -168761.70, -168596.91, -169485.36, -168701.42, 187500.00, 0.00, 0.00, 0.00
125, -168789.45, -168399.78, -168784.95, -168744.83, -169096.63, -169824.28, -109350.63, 187500.00, -168325.19, -169043.73, -169805.23, -168761.70, -168596.91, -169485.36, -168701.42, 187500.00, 0.00, 0.00, 0.00
126, -168789.45, -168399.78, -168784.95, -168744.83, -169096.63, -169824.28, -109350.63, 187500.00, -168612.48, -169085.42, -169757.47, -168888.84, -168564.56, -169630.25, -168651.66, 187500.00, 0.00, -0.07, 0.97
127, -168794.67, -168738.91, -168684.70, -168760.22, -168851.75, -169785.56, -109351.01, 187500.00, -168612.48, -169085.42, -169757.47, -168888.84, -168564.56, -169630.25, -168651.66, 187500.00, 0.00, 0.00, 0.00
128, -168794.67, -168738.91, -168684.70, -168760.22, -168851.75, -169785.56, -109351.01, 187500.00, -168905.59, -168983.81, -169690.08, -168779.84, -168593.34, -169409.78, -168684.81, 187500.00, 0.00, 0.00, 0.00
129, -168787.34, -168639.59, -168638.20, -168735.86, -168974.59, -169671.03, -109510.76, 187500.00, -168905.59, -168983.81, -169690.08, -168779.84, -168593.34, -169409.78, -168684.81, 187500.00, 0.00, 0.00, 0.00
130, -168787.34, -168639.59, -168638.20, -168735.86, -168974.59, -169671.03, -109510.76, 187500.00, -169369.78, -169004.48, -169652.89, -168891.19, -168584.86, -169511.59, -168683.89, 187500.00, 0.00, 0.00, 0.00
131, -168797.86, -168681.69, -168540.16, -168739.13, -168660.30, -169657.80, -109523.21, 187500.00, -169369.78, -169004.48, -169652.89, -168891.19, -168584.86, -169511.59, -168683.89, 187500.00, 0.00, 0.00, 0.00
132, -168797.86, -168681.69, -168540.16, -168739.13, -168660.30, -169657.80, -109523.21, 187500.00, -169270.11, -168901.67, -169588.16, -168797.70, -168574.38, -169349.08, -168692.16, 187500.00, 0.00, 0.00, 0.00
133, -168775.02, -168563.48, -168491.53, -168725.47, -169147.83, -169542.64, -109676.09, 187500.00, -169270.11, -168901.67, -169588.16, -168797.70, -168574.38, -169349.08, -168692.16, 187500.00, 0.00, 0.00, 0.00
134, -168775.02, -168563.48, -168491.53, -168725.47, -169147.83, -169542.64, -109676.09, 187500.00, -169171.03, -169045.50, -169554.14, -168862.23, -168597.64, -169389.72, -168691.50, 187500.00, 0.00, 0.00, 0.00
135, -168795.08, -168616.30, -168194.53, -168751.38, -169003.66, -169532.80, -109691.20, 187500.00, -169171.03, -169045.50, -169554.14, -168862.23, -168597.64, -169389.72, -168691.50, 187500.00, 0.00, 0.00, 0.00
136, -168795.08, -168616.30, -168194.53, -168751.38, -169003.66, -169532.80, -109691.20, 187500.00, -169035.22, -169068.83, -169492.41, -168818.20, -168563.70, -169295.11, -168673.59, 187500.00, -0.00, -0.07, 0.97
137, -168771.47, -168508.80, -168349.42, -168725.73, -169110.77, -169400.67, -109830.81, 187500.00, -169035.22, -169068.83, -169492.41, -168818.20, -168563.70, -169295.11, -168673.59, 187500.00, 0.00, 0.00, 0.00
138, -168771.47, -168508.80, -168349.42, -168725.73, -169110.77, -169400.67, -109830.81, 187500.00, -168920.02, -169015.75, -169445.34, -168835.86, -168601.59, -169259.77, -168687.98, 187500.00, 0.00, 0.00, 0.00
139, -168788.03, -168568.73, -168873.45, -168729.42, -168891.42, -169383.55, -109840.85, 187500.00, -168920.02, -169015.75, -169445.34, -168835.86, -168601.59, -169259.77, -168687.98, 187500.00, 0.00, 0.00, 0.00
140, -168788.03, -168568.73, -168873.45, -168729.42, -168891.42, -169383.55, -109840.85, 187500.00, -168785.81, -168974.42, -169383.33, -168828.36, -168553.31, -169234.42, -168650.52, 187500.00, 0.00, 0.00, 0.00
141, -168764.97, -168463.84, -169394.52, -168731.72, -168983.34, -169260.75, -109980.73, 187500.00, -168785.81, -168974.42, -169383.33, -168828.36, -168553.31, -169234.42, -168650.52, 187500.00, 0.00, 0.00, 0.00
142, -168764.97, -168463.84, -169394.52, -168731.72, -168983.34, -169260.75, -109980.73, 187500.00, -168687.98, -169014.30, -169353.69, -168809.78, -168621.08, -169143.25, -168709.06, 187500.00, 0.00, 0.00, 0.00
143, -168789.34, -168513.11, -169316.20, -168747.59, -168734.45, -169256.50, -110022.68, 187500.00, -168687.98, -169014.30, -169353.69, -168809.78, -168621.08, -169143.25, -168709.06, 187500.00, 0.00, 0.00, 0.00
144, -168789.34, -168513.11, -169316.20, -168747.59, -168734.45, -169256.50, -110022.68, 187500.00, -168401.66, -169111.14, -169296.16, -168855.05, -168547.19, -169186.38, -168643.97, 187500.00, 0.00, 0.00, 0.00
145, -168768.81, -168351.83, -169244.39, -168746.44, -169007.44, -169129.39, -110129.50, 187500.00, -168401.66, -169111.14, -169296.16, -168855.05, -168547.19, -169186.38, -168643.97, 187500.00, 0.00, 0.00, 0.00
146, -168768.81, -168351.83, -169244.39, -168746.44, -169007.44, -169129.39, -110129.50, 187500.00, -168401.48, -169006.36, -169238.13, -168814.05, -168621.31, -169005.69, -168694.95, 187500.00, -0.00, -0.07, 0.97
147, -168798.80, -168636.28, -169157.28, -168740.53, -169053.03, -169095.92, -110169.73, 187500.00, -168401.48, -169006.36, -169238.13, -168814.05, -168621.31, -169005.69, -168694.95, 187500.00, 0.00, 0.00, 0.00
148, -168798.80, -168636.28, -169157.28, -168740.53, -169053.03, -169095.92, -110169.73, 187500.00, -168677.77, -169041.03, -169176.80, -168877.61, -168522.53, -169077.02, -168628.45, 187500.00, 0.00, 0.00, 0.00
149, -168766.17, -168638.52, -169083.25, -168765.03, -169054.44, -168506.44, -110261.51, 187500.00, -168677.77, -169041.03, -169176.80, -168877.61, -168522.53, -169077.02, -168628.45, 187500.00, 0.00, 0.00, 0.00
150, -168766.17, -168638.52, -169083.25, -168765.03, -169054.44, -168506.44, -110261.51, 187500.00, -169032.36, -168907.44, -169055.45, -168753.23, -168610.94, -168597.59, -168705.89, 187500.00, 0.00, 0.00, 0.00
151, -168770.97, -168621.47, -168974.95, -168778.84, -168913.22, -168607.09, -110310.23, 187500.00, -169032.36, -168907.44, -169055.45, -168753.23, -168610.94, -168597.59, -168705.89, 187500.00, 0.00, 0.00, 0.00
152, -168770.97, -168621.47, -168974.95, -168778.84, -168913.22, -168607.09, -110310.23, 187500.00, -169323.94, -168918.55, -168892.66, -168845.73, -168521.17, -169250.94, -168597.92, 187500.00, 0.00, 0.00, 0.00
153, -168745.81, -168497.33, -168854.48, -168775.72, -168843.16, -168802.45, -110350.80, 187500.00, -169323.94, -168918.55, -168892.66, -168845.73, -168521.17, -169250.94, -168597.92, 187500.00, 0.00, 0.00, 0.00
154, -168745.81, -168497.33, -168854.48, -168775.72, -168843.16, -168802.45, -110350.80, 187500.00, -169163.45, -168838.28, -169417.23, -168732.55, -168579.95, -169170.78, -168696.98, 187500.00, 0.00, 0.00, 0.00
155, -168752.95, -168461.16, -168751.44, -168739.80, -169061.58, -169088.59, -110416.34, 187500.00, -169163.45, -168838.28, -169417.23, -168732.55, -168579.95, -169170.78, -168696.98, 187500.00, 0.00, 0.00, 0.00
156, -168752.95, -168461.16, -168751.44, -168739.80, -169061.58, -169088.59, -110416.34, 187500.00, -169029.86, -169111.13, -169848.23, -168851.31, -168500.45, -169343.81, -168590.02, 187500.00, -0.01, -0.07, 0.97
157, -168748.11, -168354.63, -168658.08, -168738.30, -168976.83, -169353.03, -110478.34, 187500.00, -169029.86, -169111.13, -169848.23, -168851.31, -168500.45, -169343.81, -168590.02, 187500.00, 0.00, 0.00, 0.00
158, -168748.11, -168354.63, -168658.08, -168738.30, -168976.83, -169353.03, -110478.34, 187500.00, -168890.77, -168949.97, -169784.81, -168704.09, -168578.95, -169035.63, -168679.64, 187500.00, 0.00, 0.00, 0.00
159, -168767.84, -168501.34, -168595.16, -168726.25, -168970.39, -170006.17, -110589.79, 187500.00, -168890.77, -168949.97, -169784.81, -168704.09, -168578.95, -169035.63, -168679.64, 187500.00, 0.00, 0.00, 0.00
160, -168767.84, -168501.34, -168595.16, -168726.25, -168970.39, -170006.17, -110589.79, 187500.00, -168769.88, -169009.98, -169727.09, -168855.53, -168506.53, -169241.38, -168590.50, 187500.00, 0.00, 0.00, 0.00
161, -168753.25, -168667.48, -168502.78, -168724.89, -168801.23, -170354.59, -110629.30, 187500.00, -168769.88, -169009.98, -169727.09, -168855.53, -168506.53, -169241.38, -168590.50, 187500.00, 0.00, 0.00, 0.00
162, -168753.25, -168667.48, -168502.78, -168724.89, -168801.23, -170354.59, -110629.30, 187500.00, -168633.31, -168849.52, -169664.64, -168718.09, -168585.91, -168927.59, -168685.59, 187500.00, 0.00, 0.00, 0.00
163, -168769.45, -168618.69, -168420.14, -168691.92, -169142.31, -170287.34, -110754.25, 187500.00, -168633.31, -168849.52, -169664.64, -168718.09, -168585.91, -168927.59, -168685.59, 187500.00, 0.00, 0.00, 0.00
164, -168769.45, -168618.69, -168420.14, -168691.92, -169142.31, -170287.34, -110754.25, 187500.00, -168343.09, -169109.81, -169623.03, -168885.89, -168518.13, -169144.72, -168609.63, 187500.00, 0.00, 0.00, 0.00
165, -168756.84, -168603.38, -168102.45, -168754.75, -168963.45, -170211.64, -110769.12, 187500.00, -168343.09, -169109.81, -169623.03, -168885.89, -168518.13, -169144.72, -168609.63, 187500.00, 0.00, 0.00, 0.00
166, -168756.84, -168603.38, -168102.45, -168754.75, -168963.45, -170211.64, -110769.12, 187500.00, -168394.59, -168965.59, -169550.25, -168715.88, -168568.56, -168829.17, -168674.94, 187500.00, -0.00, -0.07, 0.97
167, -168752.69, -168538.50, -168473.42, -168702.92, -169024.20, -170111.52, -110889.59, 187500.00, -168394.59, -168965.59, -169550.25, -168715.88, -168568.56, -168829.17, -168674.94, 187500.00, 0.00, 0.00, 0.00
168, -168752.69, -168538.50, -168473.42, -168702.92, -169024.20, -170111.52, -110889.59, 187500.00, -168670.27, -169016.28, -169488.48, -168848.11, -168507.38, -169009.31, -168590.63, 187500.00, 0.00, 0.00, 0.00
169, -168746.80, -168534.63, -169050.17, -168739.17, -168717.47, -170036.86, -110868.63, 187500.00, -168670.27, -169016.28, -169488.48, -168848.11, -168507.38, -169009.31, -168590.63, 187500.00, 0.00, 0.00, 0.00
170, -168746.80, -168534.63, -169050.17, -168739.17, -168717.47, -170036.86, -110868.63, 187500.00, -168988.06, -168842.84, -169399.16, -168699.66, -168547.08, -168479.27, -168652.64, 187500.00, 0.00, 0.00, 0.00
171, -168732.44, -168425.84, -169330.17, -168721.91, -169126.34, -169921.20, -110992.14, 187500.00, -168988.06, -168842.84, -169399.16, -168699.66, -168547.08, -168479.27, -168652.64, 187500.00, 0.00, 0.00, 0.00
172, -168732.44, -168425.84, -169330.17, -168721.91, -169126.34, -169921.20, -110992.14, 187500.00, -169321.50, -169043.78, -169344.80, -168836.98, -168521.16, -168775.77, -168607.14, 187500.00, 0.00, 0.00, 0.00
173, -168740.98, -168431.44, -169213.94, -168725.72, -168916.84, -169873.81, -110986.42, 187500.00, -169321.50, -169043.78, -169344.80, -168836.98, -168521.16, -168775.77, -168607.14, 187500.00, 0.00, 0.00, 0.00
174, -168740.98, -168431.44, -169213.94, -168725.72, -168916.84, -169873.81, -110986.42, 187500.00, -169178.67, -168959.38, -169273.73, -168721.94, -168546.41, -168906.50, -168652.84, 187500.00, 0.00, 0.00, 0.00
175, -168742.56, -168322.17, -169159.88, -168716.84, -169029.30, -169756.52, -111130.81, 187500.00, -169178.67, -168959.38, -169273.73, -168721.94, -168546.41, -168906.50, -168652.84, 187500.00, 0.00, 0.00, 0.00
176, -168742.56, -168322.17, -169159.88, -168716.84, -169029.30, -169756.52, -111130.81, 187500.00, -169061.44, -168969.09, -169223.91, -168833.81, -168527.16, -169644.30, -168628.75, 187500.00, -0.00, -0.07, 0.96
177, -168754.41, -168675.59, -169058.28, -168708.88, -168703.20, -169728.41, -111129.30, 187500.00, -169061.44, -168969.09, -169223.91, -168833.81, -168527.16, -169644.30, -168628.75, 187500.00, 0.00, 0.00, 0.00
178, -168754.41, -168675.59, -169058.28, -168708.88, -168703.20, -169728.41, -111129.30, 187500.00, -168919.19, -168851.31, -169157.91, -168733.52, -168541.58, -169562.41, -168644.39, 187500.00, 0.00, 0.00, 0.00
179, -168735.19, -168579.95, -169005.48, -168688.31, -169115.38, -169614.11, -111280.30, 187500.00, -168919.19, -168851.31, -169157.91, -168733.52, -168541.58, -169562.41, -168644.39, 187500.00, 0.00, 0.00, 0.00
180, -168735.19, -168579.95, -169005.48, -168688.31, -169115.38, -169614.11, -111280.30, 187500.00, -168822.25, -169014.50, -169125.20, -168819.20, -168549.83, -169624.66, -168635.77, 187500.00, 0.00, 0.00, 0.00
181, -168750.13, -168632.42, -168913.98, -168702.09, -168959.42, -169607.52, -111296.82, 187500.00, -168822.25, -169014.50, -169125.20, -168819.20, -168549.83, -169624.66, -168635.77, 187500.00, 0.00, 0.00, 0.00
182, -168750.13, -168632.42, -168913.98, -168702.09, -168959.42, -169607.52, -111296.82, 187500.00, -168700.86, -169026.75, -169075.55, -168769.30, -168527.91, -169515.38, -168634.73, 187500.00, 0.00, 0.00, 0.00
183, -168736.64, -168525.11, -168875.58, -168691.36, -169089.31, -169494.09, -111460.30, 187500.00, -168700.86, -169026.75, -169075.55, -168769.30, -168527.91, -169515.38, -168634.73, 187500.00, 0.00, 0.00, 0.00
184, -168736.64, -168525.11, -168875.58, -168691.36, -169089.31, -169494.09, -111460.30, 187500.00, -168577.50, -169001.02, -169014.98, -168807.81, -168563.34, -169519.31, -168652.47, 187500.00, 0.00, 0.00, 0.00
185, -168761.30, -168579.13, -168785.22, -168713.16, -168869.02, -169490.17, -111483.39, 187500.00, -168577.50, -169001.02, -169014.98, -168807.81, -168563.34, -169519.31, -168652.47, 187500.00, 0.00, 0.00, 0.00
186, -168761.30, -168579.13, -168785.22, -168713.16, -168869.02, -169490.17, -111483.39, 187500.00, -168264.89, -168974.80, -168822.03, -168791.89, -168511.66, -169462.09, -168617.27, 187500.00, 0.00, -0.07, 0.96
187, -168728.91, -168446.25, -168717.56, -168720.34, -168947.06, -169345.42, -111607.20, 187500.00, -168264.89, -168974.80, -168822.03, -168791.89, -168511.66, -169462.09, -168617.27, 187500.00, 0.00, 0.00, 0.00
188, -168728.91, -168446.25, -168717.56, -168720.34, -168947.06, -169345.42, -111607.20, 187500.00, -168487.63, -168922.55, -169342.52, -168789.89, -168565.03, -169367.56, -168637.83, 187500.00, 0.00, 0.00, 0.00
189, -168739.77, -168473.91, -168609.89, -168717.42, -168655.28, -169321.25, -111617.39, 187500.00, -168487.63, -168922.55, -169342.52, -168789.89, -168565.03, -169367.56, -168637.83, 187500.00, 0.00, 0.00, 0.00
190, -168739.77, -168473.91, -168609.89, -168717.42, -168655.28, -169321.25, -111617.39, 187500.00, -168746.19, -168909.02, -169803.61, -168808.44, -168515.42, -169372.58, -168571.38, 187500.00, 0.00, 0.00, 0.00
191, -168720.80, -168298.48, -168533.27, -168715.77, -168971.66, -169183.14, -111716.41, 187500.00, -168746.19, -168909.02, -169803.61, -168808.44, -168515.42, -169372.58, -168571.38, 187500.00, 0.00, 0.00, 0.00
192, -168720.80, -168298.48, -168533.27, -168715.77, -168971.66, -169183.14, -111716.41, 187500.00, -169180.39, -168880.36, -169747.95, -168786.73, -168558.19, -169212.89, -168643.80, 187500.00, 0.00, 0.00, 0.00
193, -168746.23, -168603.03, -168443.55, -168673.08, -168982.42, -169161.34, -111746.76, 187500.00, -169180.39, -168880.36, -169747.95, -168786.73, -168558.19, -169212.89, -168643.80, 187500.00, 0.00, 0.00, 0.00
194, -168746.23, -168603.03, -168443.55, -168673.08, -168982.42, -169161.34, -111746.76, 187500.00, -169286.55, -169055.89, -169694.23, -168844.27, -168473.98, -169302.41, -168579.59, 187500.00, 0.00, 0.00, 0.00
195, -168720.08, -168614.69, -168392.41, -168668.89, -169016.59, -169051.53, -111861.85, 187500.00, -169286.55, -169055.89, -169694.23, -168844.27, -168473.98, -169302.41, -168579.59, 187500.00, 0.00, 0.00, 0.00
196, -168720.08, -168614.69, -168392.41, -168668.89, -169016.59, -169051.53, -111861.85, 187500.00, -169180.86, -168952.41, -169660.75, -168738.78, -168583.58, -169114.66, -168655.91, 187500.00, 0.00, -0.07, 0.96
197, -168746.80, -168652.78, -168114.89, -168690.59, -168916.47, -169036.58, -111938.23, 187500.00, -169180.86, -168952.41, -169660.75, -168738.78, -168583.58, -169114.66, -168655.91, 187500.00, 0.00, 0.00, 0.00
198, -168746.80, -168652.78, -168114.89, -168690.59, -168916.47, -169036.58, -111938.23, 187500.00, -169064.14, -168997.25, -169610.17, -168852.50, -168497.81, -169260.41, -168586.17, 187500.00, 0.00, 0.00, 0.00
199, -168717.05, -168572.42, -168276.94, -168715.14, -168889.28, -168440.97, -112009.44, 187500.00, -169064.14, -168997.25, -169610.17, -168852.50, -168497.81, -169260.41, -168586.17, 187500.00, 0.00, 0.00, 0.00
200, -168717.05, -168572.42, -168276.94, -168715.14, -168889.28, -168440.97, -112009.44, 187500.00, -168920.59, -168841.27, -169540.03, -168723.28, -168584.41, -168985.80, -168670.27, 187500.00, 0.00, 0.00, 0.00
201, -168727.55, -168564.38, -168753.98, -168702.83, -168748.69, -168546.25, -112066.19, 187500.00, -168920.59, -168841.27, -169540.03, -168723.28, -168584.41, -168985.80, -168670.27, 187500.00, 0.00, 0.00, 0.00
202, -168727.55, -168564.38, -168753.98, -168702.83, -168748.69, -168546.25, -112066.19, 187500.00, -168776.20, -169028.06, -169459.81, -168832.31, -168473.16, -169139.80, -168563.22, 187500.00, 0.00, 0.00, 0.00
203, -168714.77, -168481.39, -169305.78, -168699.88, -168755.83, -168762.27, -112112.55, 187500.00, -168776.20, -169028.06, -169459.81, -168832.31, -168473.16, -169139.80, -168563.22, 187500.00, 0.00, 0.00, 0.00
204, -168714.77, -168481.39, -169305.78, -168699.88, -168755.83, -168762.27, -112112.55, 187500.00, -168635.44, -168865.20, -169389.19, -168677.91, -168558.33, -168838.05, -168643.19, 187500.00, 0.00, 0.00, 0.00
205, -168724.34, -168459.45, -169258.42, -168681.17, -169061.97, -169072.66, -112221.35, 187500.00, -168635.44, -168865.20, -169389.19, -168677.91, -168558.33, -168838.05, -168643.19, 187500.00, 0.00, 0.00, 0.00
206, -168724.34, -168459.45, -169258.42, -168681.17, -169061.97, -169072.66, -112221.35, 187500.00, -168403.20, -168923.09, -169334.23, -168826.36, -168463.06, -169040.97, -168555.30, 187500.00, -0.00, -0.07, 0.96
207, -168704.64, -168385.31, -169156.39, -168723.25, -168949.86, -169340.88, -112266.55, 187500.00, -168403.20, -168923.09, -169334.23, -168826.36, -168463.06, -169040.97, -168555.30, 187500.00, 0.00, 0.00, 0.00
208, -168704.64, -168385.31, -169156.39, -168723.25, -168949.86, -169340.88, -112266.55, 187500.00, -168245.39, -168751.31, -169252.88, -168675.75, -168539.59, -168463.77, -168658.72, 187500.00, 0.00, 0.00, 0.00
209, -168710.42, -168382.22, -169060.66, -168710.69, -168943.70, -169916.86, -112352.83, 187500.00, -168245.39, -168751.31, -169252.88, -168675.75, -168539.59, -168463.77, -168658.72, 187500.00, 0.00, 0.00, 0.00
210, -168710.42, -168382.22, -169060.66, -168710.69, -168943.70, -169916.86, -112352.83, 187500.00, -168475.19, -169029.61, -169171.41, -168807.50, -168459.64, -168839.84, -168550.00, 187500.00, 0.00, 0.00, 0.00
211, -168703.78, -168588.70, -168935.89, -168713.38, -168702.72, -170304.86, -112342.95, 187500.00, -168475.19, -169029.61, -169171.41, -168807.50, -168459.64, -168839.84, -168550.00, 187500.00, 0.00, 0.00, 0.00
212, -168703.78, -168588.70, -168935.89, -168713.38, -168702.72, -170304.86, -112342.95, 187500.00, -168710.56, -168876.28, -169081.31, -168663.94, -168513.70, -168893.19, -168632.48, 187500.00, 0.00, 0.00, 0.00
213, -168705.98, -168505.81, -168857.64, -168671.27, -169081.17, -170209.22, -112450.28, 187500.00, -168710.56, -168876.28, -169081.31, -168663.94, -168513.70, -168893.19, -168632.48, 187500.00, 0.00, 0.00, 0.00
214, -168705.98, -168505.81, -168857.64, -168671.27, -169081.17, -170209.22, -112450.28, 187500.00, -169181.31, -168936.22, -168961.53, -168814.83, -168455.53, -169696.58, -168555.28, 187500.00, 0.00, 0.00, 0.00
215, -168705.81, -168501.28, -168757.94, -168689.84, -168898.45, -170144.38, -112460.72, 187500.00, -169181.31, -168936.22, -168961.53, -168814.83, -168455.53, -169696.58, -168555.28, 187500.00, 0.00, 0.00, 0.00
216, -168705.81, -168501.28, -168757.94, -168689.84, -168898.45, -170144.38, -112460.72, 187500.00, -169225.70, -168787.30, -168852.00, -168662.19, -168512.36, -169449.47, -168633.53, 187500.00, 0.00, -0.07, 0.96
217, -168696.30, -168407.30, -168693.75, -168672.30, -168981.48, -170036.31, -112590.47, 187500.00, -169225.70, -168787.30, -168852.00, -168662.19, -168512.36, -169449.47, -168633.53, 187500.00, 0.00, 0.00, 0.00
218, -168696.30, -168407.30, -168693.75, -168672.30, -168981.48, -170036.31, -112590.47, 187500.00, -169107.81, -169047.80, -169478.59, -168814.42, -168475.89, -169614.39, -168561.16, 187500.00, 0.00, 0.00, 0.00
219, -168695.88, -168414.83, -168585.97, -168667.52, -168673.92, -169985.84, -112586.23, 187500.00, -169107.81, -169047.80, -169478.59, -168814.42, -168475.89, -169614.39, -168561.16, 187500.00, 0.00, 0.00, 0.00
220, -168695.88, -168414.83, -168585.97, -168667.52, -168673.92, -169985.84, -112586.23, 187500.00, -168967.05, -168944.38, -169767.19, -168678.38, -168511.81, -169358.42, -168610.36, 187500.00, 0.00, 0.00, 0.00
221, -168696.17, -168299.63, -168541.77, -168654.75, -169101.58, -169887.80, -112739.36, 187500.00, -168967.05, -168944.38, -169767.19, -168678.38, -168511.81, -169358.42, -168610.36, 187500.00, 0.00, 0.00, 0.00
222, -168696.17, -168299.63, -168541.77, -168654.75, -169101.58, -169887.80, -112739.36, 187500.00, -168859.94, -168971.81, -169723.25, -168805.22, -168484.27, -169498.44, -168592.91, 187500.00, 0.00, 0.00, 0.00
223, -168711.83, -168630.41, -168451.84, -168656.78, -168909.16, -169865.09, -112749.55, 187500.00, -168859.94, -168971.81, -169723.25, -168805.22, -168484.27, -169498.44, -168592.91, 187500.00, 0.00, 0.00, 0.00
224, -168711.83, -168630.41, -168451.84, -168656.78, -168909.16, -169865.09, -112749.55, 187500.00, -168731.09, -168859.59, -169666.47, -168697.81, -168505.81, -169303.03, -168623.80, 187500.00, 0.00, 0.00, 0.00
225, -168692.30, -168550.92, -168413.33, -168639.72, -169045.13, -169760.23, -112914.23, 187500.00, -168731.09, -168859.59, -169666.47, -168697.81, -168505.81, -169303.03, -168623.80, 187500.00, 0.00, 0.00, 0.00
226, -168692.30, -168550.92, -168413.33, -168639.72, -169045.13, -169760.23, -112914.23, 187500.00, -168634.31, -169003.75, -169634.22, -168792.83, -168507.45, -169394.25, -168607.05, 187500.00, -0.00, -0.07, 0.96
227, -168706.94, -168601.14, -168107.64, -168672.31, -168807.36, -169747.80, -112921.50, 187500.00, -168634.31, -169003.75, -169634.22, -168792.83, -168507.45, -169394.25, -168607.05, 187500.00, 0.00, 0.00, 0.00
228, -168706.94, -168601.14, -168107.64, -168672.31, -168807.36, -169747.80, -112921.50, 187500.00, -168323.34, -168983.86, -169571.41, -168720.73, -168490.97, -169249.84, -168600.72, 187500.00, 0.00, 0.00, 0.00
229, -168688.63, -168489.50, -168282.59, -168652.95, -168920.64, -169617.69, -113054.94, 187500.00, -168323.34, -168983.86, -169571.41, -168720.73, -168490.97, -169249.84, -168600.72, 187500.00, 0.00, 0.00, 0.00
230, -168688.63, -168489.50, -168282.59, -168652.95, -168920.64, -169617.69, -113054.94, 187500.00, -168370.98, -168950.86, -169514.33, -168779.25, -168508.14, -169254.36, -168591.11, 187500.00, 0.00, 0.00, 0.00
231, -168700.41, -168530.63, -168774.75, -168674.59, -168583.75, -169586.92, -113032.68, 187500.00, -168370.98, -168950.86, -169514.33, -168779.25, -168508.14, -169254.36, -168591.11, 187500.00, 0.00, 0.00, 0.00
232, -168700.41, -168530.63, -168774.75, -168674.59, -168583.75, -169586.92, -113032.68, 187500.00, -168615.56, -168870.80, -169423.83, -168723.05, -168461.56, -169151.73, -168552.48, 187500.00, 0.00, 0.00, 0.00
233, -168679.25, -168393.45, -169278.25, -168664.36, -168991.19, -169445.23, -113144.05, 187500.00, -168615.56, -168870.80, -169423.83, -168723.05, -168461.56, -169151.73, -168552.48, 187500.00, 0.00, 0.00, 0.00
234, -168679.25, -168393.45, -169278.25, -168664.36, -168991.19, -169445.23, -113144.05, 187500.00, -168967.94, -168926.48, -169372.30, -168738.75, -168504.00, -169093.16, -168583.52, 187500.00, 0.00, 0.00, 0.00
235, -168695.61, -168438.19, -169187.88, -168650.17, -168910.45, -169437.64, -113163.73, 187500.00, -168967.94, -168926.48, -169372.30, -168738.75, -168504.00, -169093.16, -168583.52, 187500.00, 0.00, 0.00, 0.00
236, -168695.61, -168438.19, -169187.88, -168650.17, -168910.45, -169437.64, -113163.73, 187500.00, -169282.39, -169016.47, -169320.81, -168750.38, -168480.61, -169095.91, -168543.33, 187500.00, -0.00, -0.07, 0.96
237, -168677.95, -168332.86, -169139.88, -168644.98, -168997.42, -169323.44, -113306.48, 187500.00, -169282.39, -169016.47, -169320.81, -168750.38, -168480.61, -169095.91, -168543.33, 187500.00, 0.00, 0.00, 0.00
238, -168677.95, -168332.86, -169139.88, -168644.98, -168997.42, -169323.44, -113306.48, 187500.00, -169181.75, -168942.44, -169289.30, -168754.23, -168546.14, -168988.95, -168613.16, 187500.00, 0.00, 0.00, 0.00
239, -168705.03, -168382.56, -169059.88, -168653.83, -168831.97, -169326.80, -113355.62, 187500.00, -169181.75, -168942.44, -169289.30, -168754.23, -168546.14, -168988.95, -168613.16, 187500.00, 0.00, 0.00, 0.00
240, -168705.03, -168382.56, -169059.88, -168653.83, -168831.97, -169326.80, -113355.62, 187500.00, -169064.08, -168961.44, -169241.50, -168804.14, -168464.44, -169059.09, -168561.03, 187500.00, 0.00, 0.00, 0.00
241, -168678.75, -168239.98, -169005.17, -168648.31, -168878.33, -169212.33, -113475.38, 187500.00, -169064.08, -168961.44, -169241.50, -168804.14, -168464.44, -169059.09, -168561.03, 187500.00, 0.00, 0.00, 0.00
242, -168678.75, -168239.98, -169005.17, -168648.31, -168878.33, -169212.33, -113475.38, 187500.00, -168952.50, -168858.06, -169201.36, -168703.72, -168557.31, -168884.88, -168616.80, 187500.00, 0.00, 0.00, 0.00
243, -168708.28, -168554.81, -168937.42, -168643.84, -168691.25, -169205.89, -113534.48, 187500.00, -168952.50, -168858.06, -169201.36, -168703.72, -168557.31, -168884.88, -168616.80, 187500.00, 0.00, 0.00, 0.00
244, -168708.28, -168554.81, -168937.42, -168643.84, -168691.25, -169205.89, -113534.48, 187500.00, -168832.33, -168890.22, -169149.25, -168800.66, -168461.94, -168999.44, -168541.02, 187500.00, 0.00, 0.00, 0.00
245, -168677.36, -168553.69, -168864.81, -168666.08, -168850.70, -169094.77, -113618.00, 187500.00, -168832.33, -168890.22, -169149.25, -168800.66, -168461.94, -168999.44, -168541.02, 187500.00, 0.00, 0.00, 0.00
246, -168677.36, -168553.69, -168864.81, -168666.08, -168850.70, -169094.77, -113618.00, 187500.00, -168701.59, -168804.45, -169091.00, -168711.28, -168557.25, -168501.92, -168625.78, 187500.00, 0.00, -0.07, 0.97
247, -168692.31, -168550.50, -168774.95, -168667.86, -168997.89, -169062.23, -113673.23, 187500.00, -168701.59, -168804.45, -169091.00, -168711.28, -168557.25, -168501.92, -168625.78, 187500.00, 0.00, 0.00, 0.00
248, -168692.31, -168550.50, -168774.95, -168667.86, -168997.89, -169062.23, -113673.23, 187500.00, -168545.02, -169026.97, -169008.42, -168822.73, -168443.70, -168927.48, -168542.58, 187500.00, 0.00, 0.00, 0.00
249, -168680.05, -168459.91, -168681.91, -168690.67, -168928.25, -168598.73, -113727.70, 187500.00, -168545.02, -169026.97, -169008.42, -168822.73, -168443.70, -168927.48, -168542.58, 187500.00, 0.00, 0.00, 0.00
250, -168680.05, -168459.91, -168681.91, -168690.67, -168928.25, -168598.73, -113727.70, 187500.00, -168218.83, -168863.36, -168769.66, -168653.22, -168524.84, -169113.52, -168614.92, 187500.00, 0.00, 0.00, 0.00
251, -168686.28, -168410.28, -168574.73, -168687.64, -168836.58, -168461.20, -113787.05, 187500.00, -168218.83, -168863.36, -168769.66, -168653.22, -168524.84, -169113.52, -168614.92, 187500.00, 0.00, 0.00, 0.00
252, -168686.28, -168410.28, -168574.73, -168687.64, -168836.58, -168461.20, -113787.05, 187500.00, -168417.02, -168913.06, -169208.94, -168780.05, -168418.53, -169720.56, -168490.75, 187500.00, 0.00, 0.00, 0.00
253, -168667.91, -168277.73, -168450.83, -168687.47, -168694.05, -168677.28, -113798.85, 187500.00, -168417.02, -168913.06, -169208.94, -168780.05, -168418.53, -169720.56, -168490.75, 187500.00, 0.00, 0.00, 0.00
254, -168667.91, -168277.73, -168450.83, -168687.47, -168694.05, -168677.28, -113798.85, 187500.00, -168636.34, -168738.91, -169747.20, -168630.03, -168474.53, -169379.92, -168611.34, 187500.00, 0.00, 0.00, 0.00
255, -168675.53, -168384.41, -168303.59, -168660.92, -169002.66, -168943.91, -113879.01, 187500.00, -168636.34, -168738.91, -169747.20, -168630.03, -168474.53, -169379.92, -168611.34, 187500.00, 0.00, 0.00, 0.00
0, -168675.53, -168384.41, -168303.59, -168660.92, -169002.66, -168943.91, -113879.01, 187500.00, -168973.23, -168999.13, -169694.02, -168764.11, -168414.36, -169564.47, -168497.33, 187500.00, 0.00, -0.08, 0.97
1, -168663.17, -168557.98, -168031.67, -168679.83, -168845.47, -169202.83, -113883.20, 187500.00, -168973.23, -168999.13, -169694.02, -168764.11, -168414.36, -169564.47, -168497.33, 187500.00, 0.00, 0.00, 0.00
2, -168663.17, -168557.98, -168031.67, -168679.83, -168845.47, -169202.83, -113883.20, 187500.00, -169239.95, -168828.36, -169603.80, -168626.52, -168467.95, -169226.23, -168582.94, 187500.00, 0.00, 0.00, 0.00
3, -168668.11, -168496.66, -168435.31, -168629.09, -168880.45, -169671.19, -113989.31, 187500.00, -169239.95, -168828.36, -169603.80, -168626.52, -168467.95, -169226.23, -168582.94, 187500.00, 0.00, 0.00, 0.00
4, -168668.11, -168496.66, -168435.31, -168629.09, -168880.45, -169671.19, -113989.31, 187500.00, -169110.25, -168870.55, -169537.84, -168773.81, -168421.31, -169425.64, -168499.56, 187500.00, 0.00, 0.00, 0.00
5, -168659.98, -168484.27, -169060.70, -168640.08, -168645.89, -170269.66, -113986.31, 187500.00, -169110.25, -168870.55, -169537.84, -168773.81, -168421.31, -169425.64, -168499.56, 187500.00, 0.00, 0.00, 0.00
6, -168659.98, -168484.27, -169060.70, -168640.08, -168645.89, -170269.66, -113986.31, 187500.00, -168965.39, -168710.41, -169468.38, -168619.56, -168489.30, -169119.06, -168586.11, 187500.00, 0.00, 0.00, 0.00
7, -168660.94, -168407.31, -169229.03, -168613.73, -169073.06, -170190.42, -114121.48, 187500.00, -168965.39, -168710.41, -169468.38, -168619.56, -168489.30, -169119.06, -168586.11, 187500.00, 0.00, 0.00, 0.00
8, -168660.94, -168407.31, -169229.03, -168613.73, -169073.06, -170190.42, -114121.48, 187500.00, -168865.56, -169006.58, -169433.06, -168787.14, -168432.23, -169316.67, -168525.05, 187500.00, 0.00, 0.00, 0.00
9, -168663.03, -168424.80, -169135.06, -168629.83, -168885.33, -170145.83, -114137.08, 187500.00, -168865.56, -169006.58, -169433.06, -168787.14, -168432.23, -169316.67, -168525.05, 187500.00, 0.00, 0.00, 0.00
10, -168663.03, -168424.80, -169135.06, -168629.83, -168885.33, -170145.83, -114137.08, 187500.00, -168742.75, -168908.78, -169382.61, -168640.55, -168492.88, -169060.03, -168587.20, 187500.00, -0.00, -0.07, 0.97
11, -168669.59, -168347.48, -169100.13, -168600.77, -169016.27, -170061.03, -114304.27, 187500.00, -168742.75, -168908.78, -169382.61, -168640.55, -168492.88, -169060.03, -168587.20, 187500.00, 0.00, 0.00, 0.00
12, -168669.59, -168347.48, -169100.13, -168600.77, -169016.27, -170061.03, -114304.27, 187500.00, -168653.25, -168958.73, -169356.64, -168789.73, -168449.63, -169233.66, -168561.47, 187500.00, 0.00, 0.00, 0.00
13, -168678.13, -168389.44, -169014.00, -168618.63, -168799.63, -170041.38, -114322.73, 187500.00, -168653.25, -168958.73, -169356.64, -168789.73, -168449.63, -169233.66, -168561.47, 187500.00, 0.00, 0.00, 0.00
14, -168678.13, -168389.44, -169014.00, -168618.63, -168799.63, -170041.38, -114322.73, 187500.00, -168536.81, -168861.81, -169311.17, -168661.67, -168486.73, -169027.08, -168591.56, 187500.00, 0.00, 0.00, 0.00
15, -168652.58, -168300.22, -168983.56, -168602.05, -168948.41, -169946.52, -114491.15, 187500.00, -168536.81, -168861.81, -169311.17, -168661.67, -168486.73, -169027.08, -168591.56, 187500.00, 0.00, 0.00, 0.00
16, -168652.58, -168300.22, -168983.56, -168602.05, -168948.41, -169946.52, -114491.15, 187500.00, -168279.33, -168889.13, -169283.55, -168776.34, -168476.27, -169149.39, -168572.72, 187500.00, 0.00, 0.00, 0.00
17, -168666.86, -168338.17, -168885.91, -168643.73, -168639.41, -169927.34, -114495.33, 187500.00, -168279.33, -168889.13, -169283.55, -168776.34, -168476.27, -169149.39, -168572.72, 187500.00, 0.00, 0.00, 0.00
18, -168666.86, -168338.17, -168885.91, -168643.73, -168639.41, -169927.34, -114495.33, 187500.00, -168279.95, -168788.50, -169213.78, -168683.63, -168461.84, -168975.09, -168569.41, 187500.00, 0.00, 0.00, 0.00
19, -168655.11, -168204.31, -168830.56, -168631.70, -169036.45, -169796.97, -114626.45, 187500.00, -168279.95, -168788.50, -169213.78, -168683.63, -168461.84, -168975.09, -168569.41, 187500.00, 0.00, 0.00, 0.00
20, -168655.11, -168204.31, -168830.56, -168631.70, -169036.45, -169796.97, -114626.45, 187500.00, -168546.16, -168899.36, -169164.98, -168745.92, -168466.09, -169004.39, -168555.50, 187500.00, -0.00, -0.07, 0.97
21, -168677.23, -168588.52, -168733.30, -168630.36, -168880.39, -169773.20, -114620.81, 187500.00, -168546.16, -168899.36, -169164.98, -168745.92, -168466.09, -169004.39, -168555.50, 187500.00, 0.00, 0.00, 0.00
22, -168677.23, -168588.52, -168733.30, -168630.36, -168880.39, -169773.20, -114620.81, 187500.00, -168868.20, -168952.41, -169105.33, -168687.38, -168445.20, -168821.00, -168550.72, 187500.00, 0.00, 0.00, 0.00
23, -168650.61, -168500.03, -168684.08, -168625.31, -168999.97, -169642.53, -114762.34, 187500.00, -168868.20, -168952.41, -169105.33, -168687.38, -168445.20, -168821.00, -168550.72, 187500.00, 0.00, 0.00, 0.00
24, -168650.61, -168500.03, -168684.08, -168625.31, -168999.97, -169642.53, -114762.34, 187500.00, -169276.42, -168909.36, -169060.08, -168721.11, -168486.70, -168690.27, -168582.08, 187500.00, 0.00, 0.00, 0.00
25, -168667.05, -168544.19, -168587.02, -168623.39, -168786.95, -169629.17, -114775.40, 187500.00, -169276.42, -168909.36, -169060.08, -168721.11, -168486.70, -168690.27, -168582.08, 187500.00, 0.00, 0.00, 0.00
26, -168667.05, -168544.19, -168587.02, -168623.39, -168786.95, -169629.17, -114775.40, 187500.00, -169169.03, -168883.73, -169004.44, -168713.78, -168435.30, -169220.63, -168549.33, 187500.00, 0.00, 0.00, 0.00
27, -168653.41, -168438.16, -168546.31, -168609.47, -168896.44, -169510.30, -114919.91, 187500.00, -169169.03, -168883.73, -169004.44, -168713.78, -168435.30, -169220.63, -168549.33, 187500.00, 0.00, 0.00, 0.00
28, -168653.41, -168438.16, -168546.31, -168609.47, -168896.44, -169510.30, -114919.91, 187500.00, -169068.83, -168839.58, -168960.55, -168711.61, -168518.94, -169164.20, -168592.34, 187500.00, 0.00, 0.00, 0.00
29, -168684.31, -168489.05, -168465.94, -168617.36, -168666.91, -169507.27, -114957.05, 187500.00, -169068.83, -168839.58, -168960.55, -168711.61, -168518.94, -169164.20, -168592.34, 187500.00, 0.00, 0.00, 0.00
30, -168684.31, -168489.05, -168465.94, -168617.36, -168666.91, -169507.27, -114957.05, 187500.00, -168940.72, -168948.16, -168736.42, -168744.75, -168413.81, -169193.33, -168539.81, 187500.00, -0.01, -0.07, 0.97
31, -168645.58, -168364.73, -168394.48, -168626.88, -168889.95, -169370.66, -115055.91, 187500.00, -168940.72, -168948.16, -168736.42, -168744.75, -168413.81, -169193.33, -168539.81, 187500.00, 0.00, 0.00, 0.00
32, -168645.58, -168364.73, -168394.48, -168626.88, -168889.95, -169370.66, -115055.91, 187500.00, -168807.67, -168847.55, -169194.31, -168671.59, -168497.23, -169015.44, -168577.70, 187500.00, 0.00, 0.00, 0.00
33, -168666.66, -168391.80, -168177.88, -168621.36, -168928.17, -169350.33, -115090.73, 187500.00, -168807.67, -168847.55, -169194.31, -168671.59, -168497.23, -169015.44, -168577.70, 187500.00, 0.00, 0.00, 0.00
34, -168666.66, -168391.80, -168177.88, -168621.36, -168928.17, -169350.33, -115090.73, 187500.00, -168681.70, -168872.19, -169729.78, -168752.09, -168436.08, -169109.34, -168508.95, 187500.00, 0.00, 0.00, 0.00
35, -168637.80, -168302.17, -168115.16, -168624.33, -168940.17, -169221.83, -115175.23, 187500.00, -168681.70, -168872.19, -169729.78, -168752.09, -168436.08, -169109.34, -168508.95, 187500.00, 0.00, 0.00, 0.00
36, -168637.80, -168302.17, -168115.16, -168624.33, -168940.17, -169221.83, -115175.23, 187500.00, -168548.28, -168790.83, -169687.55, -168665.34, -168520.38, -168876.28, -168588.19, 187500.00, 0.00, 0.00, 0.00
37, -168646.47, -168326.48, -168572.00, -168613.55, -168830.14, -169187.39, -115222.50, 187500.00, -168548.28, -168790.83, -169687.55, -168665.34, -168520.38, -168876.28, -168588.19, 187500.00, 0.00, 0.00, 0.00
38, -168646.47, -168326.48, -168572.00, -168613.55, -168830.14, -169187.39, -115222.50, 187500.00, -168222.02, -168998.92, -169623.50, -168767.17, -168405.91, -169012.11, -168498.95, 187500.00, 0.00, 0.00, 0.00
39, -168634.45, -168204.67, -169212.47, -168628.86, -168789.30, -169065.39, -115283.30, 187500.00, -168222.02, -168998.92, -169623.50, -168767.17, -168405.91, -169012.11, -168498.95, 187500.00, 0.00, 0.00, 0.00
40, -168634.45, -168204.67, -169212.47, -168628.86, -168789.30, -169065.39, -115283.30, 187500.00, -168364.23, -168860.50, -169560.38, -168622.45, -168499.48, -168735.09, -168581.36, 187500.00, -0.00, -0.08, 0.97
41, -168661.56, -168429.27, -169206.64, -168611.27, -168682.78, -169024.27, -115356.73, 187500.00, -168364.23, -168860.50, -169560.38, -168622.45, -168499.48, -168735.09, -168581.36, 187500.00, 0.00, 0.00, 0.00
42, -168661.56, -168429.27, -169206.64, -168611.27, -168682.78, -169024.27, -115356.73, 187500.00, -168641.64, -168921.89, -169496.11, -168750.39, -168394.81, -168901.70, -168486.38, 187500.00, 0.00, 0.00, 0.00
43, -168634.36, -168514.94, -169104.67, -168637.94, -168681.09, -168621.91, -115387.95, 187500.00, -168641.64, -168921.89, -169496.11, -168750.39, -168394.81, -168901.70, -168486.38, 187500.00, 0.00, 0.00, 0.00
44, -168634.36, -168514.94, -169104.67, -168637.94, -168681.09, -168621.91, -115387.95, 187500.00, -169031.44, -168743.84, -169412.88, -168599.78, -168474.03, -168325.30, -168583.41, 187500.00, 0.00, 0.00, 0.00
45, -168634.03, -168458.86, -169006.42, -168639.22, -168976.09, -168387.23, -115462.96, 187500.00, -169031.44, -168743.84, -169412.88, -168599.78, -168474.03, -168325.30, -168583.41, 187500.00, 0.00, 0.00, 0.00
46, -168634.03, -168458.86, -169006.42, -168639.22, -168976.09, -168387.23, -115462.96, 187500.00, -169193.11, -168964.03, -169335.56, -168733.80, -168394.14, -168770.84, -168477.52, 187500.00, 0.00, 0.00, 0.00
47, -168630.30, -168389.81, -168887.23, -168649.81, -168835.02, -168648.91, -115479.59, 187500.00, -169193.11, -168964.03, -169335.56, -168733.80, -168394.14, -168770.84, -168477.52, 187500.00, 0.00, 0.00, 0.00
48, -168630.30, -168389.81, -168887.23, -168649.81, -168835.02, -168648.91, -115479.59, 187500.00, -169028.06, -168787.27, -169248.52, -168597.39, -168452.00, -168850.22, -168571.89, 187500.00, 0.00, 0.00, 0.00
49, -168637.53, -168321.59, -168802.36, -168612.88, -168856.94, -168938.91, -115586.66, 187500.00, -169028.06, -168787.27, -169248.52, -168597.39, -168452.00, -168850.22, -168571.89, 187500.00, 0.00, 0.00, 0.00
50, -168637.53, -168321.59, -168802.36, -168612.88, -168856.94, -168938.91, -115586.66, 187500.00, -168896.38, -168832.94, -169183.23, -168742.36, -168385.03, -169629.66, -168482.44, 187500.00, -0.00, -0.07, 0.97
51, -168626.31, -168261.47, -168693.14, -168623.56, -168615.05, -169209.92, -115599.28, 187500.00, -168896.38, -168832.94, -169183.23, -168742.36, -168385.03, -169629.66, -168482.44, 187500.00, 0.00, 0.00, 0.00
52, -168626.31, -168261.47, -168693.14, -168623.56, -168615.05, -169209.92, -115599.28, 187500.00, -168744.06, -168664.89, -169105.45, -168582.84, -168442.78, -169333.70, -168558.91, 187500.00, 0.00, 0.00, 0.00
53, -168625.89, -168284.92, -168626.06, -168614.95, -169000.97, -169661.25, -115715.70, 187500.00, -168744.06, -168664.89, -169105.45, -168582.84, -168442.78, -169333.70, -168558.91, 187500.00, 0.00, 0.00, 0.00
54, -168625.89, -168284.92, -168626.06, -168614.95, -169000.97, -169661.25, -115715.70, 187500.00, -168623.34, -168962.48, -169050.58, -168735.70, -168399.11, -169521.81, -168481.34, 187500.00, 0.00, 0.00, 0.00
55, -168627.28, -168564.92, -168530.45, -168592.23, -168821.36, -170264.78, -115725.57, 187500.00, -168623.34, -168962.48, -169050.58, -168735.70, -168399.11, -169521.81, -168481.34, 187500.00, 0.00, 0.00, 0.00
56, -168627.28, -168564.92, -168530.45, -168592.23, -168821.36, -170264.78, -115725.57, 187500.00, -168473.56, -168853.52, -168995.20, -168599.97, -168451.50, -169248.88, -168546.81, 187500.00, 0.00, 0.00, 0.00
57, -168634.83, -168492.55, -168490.97, -168575.16, -168938.06, -170184.64, -115880.85, 187500.00, -168473.56, -168853.52, -168995.20, -168599.97, -168451.50, -169248.88, -168546.81, 187500.00, 0.00, 0.00, 0.00
58, -168634.83, -168492.55, -168490.97, -168575.16, -168938.06, -170184.64, -115880.85, 187500.00, -168189.73, -168906.92, -168897.89, -168753.08, -168412.05, -169426.98, -168502.28, 187500.00, 0.00, 0.00, 0.00
59, -168636.98, -168510.88, -168388.45, -168611.86, -168706.69, -170141.86, -115878.34, 187500.00, -168189.73, -168906.92, -168897.89, -168753.08, -168412.05, -169426.98, -168502.28, 187500.00, 0.00, 0.00, 0.00
60, -168636.98, -168510.88, -168388.45, -168611.86, -168706.69, -170141.86, -115878.34, 187500.00, -168381.14, -168777.50, -168772.81, -168612.39, -168444.08, -169171.66, -168535.95, 187500.00, 0.00, -0.08, 0.97
61, -168618.83, -168392.47, -168310.73, -168594.16, -168806.66, -170016.86, -116007.90, 187500.00, -168381.14, -168777.50, -168772.81, -168612.39, -168444.08, -169171.66, -168535.95, 187500.00, 0.00, 0.00, 0.00
62, -168618.83, -168392.47, -168310.73, -168594.16, -168806.66, -170016.86, -116007.90, 187500.00, -168640.06, -168936.92, -169381.64, -168720.89, -168426.47, -169275.75, -168484.03, 187500.00, 0.00, 0.00, 0.00
63, -168621.75, -168407.38, -167953.64, -168622.84, -168478.03, -169964.94, -115970.91, 187500.00, -168640.06, -168936.92, -169381.64, -168720.89, -168426.47, -169275.75, -168484.03, 187500.00, 0.00, 0.00, 0.00
64, -168621.75, -168407.38, -167953.64, -168622.84, -168478.03, -169964.94, -115970.91, 187500.00, -169037.98, -168863.92, -169668.44, -168615.78, -168409.53, -169052.27, -168490.53, 187500.00, 0.00, 0.00, 0.00
65, -168607.55, -168284.78, -168285.58, -168572.61, -168975.06, -169826.61, -116080.18, 187500.00, -169037.98, -168863.92, -169668.44, -168615.78, -168409.53, -169052.27, -168490.53, 187500.00, 0.00, 0.00, 0.00
66, -168607.55, -168284.78, -168285.58, -168572.61, -168975.06, -169826.61, -116080.18, 187500.00, -169170.36, -168843.08, -169609.08, -168714.19, -168405.88, -169104.98, -168504.52, 187500.00, 0.00, 0.00, 0.00
67, -168621.23, -168339.28, -168847.38, -168567.23, -168817.09, -169802.02, -116067.24, 187500.00, -169170.36, -168843.08, -169609.08, -168714.19, -168405.88, -169104.98, -168504.52, 187500.00, 0.00, 0.00, 0.00
68, -168621.23, -168339.28, -168847.38, -168567.23, -168817.09, -169802.02, -116067.24, 187500.00, -169036.06, -168756.80, -169546.41, -168638.77, -168398.95, -168979.88, -168504.47, 187500.00, 0.00, 0.00, 0.00
69, -168599.09, -168191.22, -169246.70, -168573.97, -168944.81, -169681.92, -116213.22, 187500.00, -169036.06, -168756.80, -169546.41, -168638.77, -168398.95, -168979.88, -168504.47, 187500.00, 0.00, 0.00, 0.00
70, -168599.09, -168191.22, -169246.70, -168573.97, -168944.81, -169681.92, -116213.22, 187500.00, -168934.77, -168892.86, -169512.30, -168687.89, -168428.84, -168986.47, -168527.59, 187500.00, 0.00, -0.08, 0.97
71, -168626.63, -168460.20, -169157.58, -168579.17, -168723.67, -169671.77, -116221.94, 187500.00, -168934.77, -168892.86, -169512.30, -168687.89, -168428.84, -168986.47, -168527.59, 187500.00, 0.00, 0.00, 0.00
72, -168626.63, -168460.20, -169157.58, -168579.17, -168723.67, -169671.77, -116221.94, 187500.00, -168811.66, -168929.00, -169458.89, -168667.94, -168402.89, -168935.39, -168492.78, 187500.00, 0.00, 0.00, 0.00
73, -168608.97, -168439.34, -169115.17, -168562.66, -168838.92, -169553.73, -116366.24, 187500.00, -168811.66, -168929.00, -169458.89, -168667.94, -168402.89, -168935.39, -168492.78, 187500.00, 0.00, 0.00, 0.00
74, -168608.97, -168439.34, -169115.17, -168562.66, -168838.92, -169553.73, -116366.24, 187500.00, -168711.77, -168877.48, -169427.42, -168695.27, -168464.95, -168880.00, -168548.00, 187500.00, 0.00, 0.00, 0.00
75, -168637.94, -168495.64, -169030.88, -168562.33, -168583.31, -169555.17, -116396.15, 187500.00, -168711.77, -168877.48, -169427.42, -168695.27, -168464.95, -168880.00, -168548.00, 187500.00, 0.00, 0.00, 0.00
76, -168637.94, -168495.64, -169030.88, -168562.33, -168583.31, -169555.17, -116396.15, 187500.00, -168589.33, -168870.27, -169372.38, -168708.97, -168390.84, -168839.11, -168505.44, 187500.00, 0.00, 0.00, 0.00
77, -168605.30, -168379.94, -168972.34, -168574.95, -168892.53, -169434.36, -116512.38, 187500.00, -168589.33, -168870.27, -169372.38, -168708.97, -168390.84, -168839.11, -168505.44, 187500.00, 0.00, 0.00, 0.00
78, -168605.30, -168379.94, -168972.34, -168574.95, -168892.53, -169434.36, -116512.38, 187500.00, -168466.52, -168774.80, -169321.23, -168638.83, -168471.16, -168534.53, -168548.11, 187500.00, 0.00, 0.00, 0.00
79, -168627.52, -168415.77, -168882.33, -168579.78, -168885.66, -169422.81, -116545.91, 187500.00, -168466.52, -168774.80, -169321.23, -168638.83, -168471.16, -168534.53, -168548.11, 187500.00, 0.00, 0.00, 0.00
80, -168627.52, -168415.77, -168882.33, -168579.78, -168885.66, -169422.81, -116545.91, 187500.00, -168144.14, -168787.41, -169262.64, -168703.56, -168388.52, -169194.55, -168480.31, 187500.00, -0.00, -0.08, 0.97
81, -168599.52, -168311.63, -168815.45, -168578.30, -168914.73, -169298.72, -116647.13, 187500.00, -168144.14, -168787.41, -169262.64, -168703.56, -168388.52, -169194.55, -168480.31, 187500.00, 0.00, 0.00, 0.00
82, -168599.52, -168311.63, -168815.45, -168578.30, -168914.73, -169298.72, -116647.13, 187500.00, -168288.72, -168738.03, -169216.11, -168648.58, -168482.08, -169045.88, -168538.45, 187500.00, 0.00, 0.00, 0.00
83, -168620.02, -168333.63, -168731.30, -168571.44, -168792.28, -169276.95, -116696.17, 187500.00, -168288.72, -168738.03, -169216.11, -168648.58, -168482.08, -169045.88, -168538.45, 187500.00, 0.00, 0.00, 0.00
84, -168620.02, -168333.63, -168731.30, -168571.44, -168792.28, -169276.95, -116696.17, 187500.00, -168561.77, -168951.63, -169164.45, -168740.94, -168353.31, -169175.39, -168463.19, 187500.00, 0.00, 0.00, 0.00
85, -168590.00, -168248.89, -168661.70, -168578.14, -168780.59, -169162.52, -116779.14, 187500.00, -168561.77, -168951.63, -169164.45, -168740.94, -168353.31, -169175.39, -168463.19, 187500.00, 0.00, 0.00, 0.00
86, -168590.00, -168248.89, -168661.70, -168578.14, -168780.59, -169162.52, -116779.14, 187500.00, -169007.22, -168832.28, -169118.55, -168587.20, -168467.08, -168929.50, -168528.23, 187500.00, 0.00, 0.00, 0.00
87, -168612.03, -168264.84, -168597.53, -168559.95, -168677.91, -169143.63, -116863.43, 187500.00, -169007.22, -168832.28, -169118.55, -168587.20, -168467.08, -168929.50, -168528.23, 187500.00, 0.00, 0.00, 0.00
88, -168612.03, -168264.84, -168597.53, -168559.95, -168677.91, -169143.63, -116863.43, 187500.00, -169174.88, -168896.64, -169073.06, -168730.55, -168366.52, -169112.67, -168450.11, 187500.00, 0.00, 0.00, 0.00
89, -168601.64, -168143.86, -168516.59, -168588.41, -168706.69, -169043.98, -116916.00, 187500.00, -169174.88, -168896.64, -169073.06, -168730.55, -168366.52, -169112.67, -168450.11, 187500.00, 0.00, 0.00, 0.00
90, -168601.64, -168143.86, -168516.59, -168588.41, -168706.69, -169043.98, -116916.00, 187500.00, -169037.45, -168735.53, -169011.25, -168596.00, -168466.39, -168815.09, -168544.34, 187500.00, 0.00, -0.07, 0.97
91, -168628.73, -168393.48, -168454.61, -168559.81, -168965.61, -169002.70, -117000.49, 187500.00, -169037.45, -168735.53, -169011.25, -168596.00, -168466.39, -168815.09, -168544.34, 187500.00, 0.00, 0.00, 0.00
92, -168628.73, -168393.48, -168454.61, -168559.81, -168965.61, -169002.70, -117000.49, 187500.00, -168927.50, -168956.23, -168967.27, -168748.94, -168353.94, -169021.25, -168456.27, 187500.00, 0.00, 0.00, 0.00
93, -168605.94, -168532.50, -168382.09, -168571.48, -168864.72, -168766.38, -117052.35, 187500.00, -168927.50, -168956.23, -168967.27, -168748.94, -168353.94, -169021.25, -168456.27, 187500.00, 0.00, 0.00, 0.00
94, -168605.94, -168532.50, -168382.09, -168571.48, -168864.72, -168766.38, -117052.35, 187500.00, -168804.80, -168813.78, -168869.41, -168555.11, -168461.58, -168724.17, -168543.14, 187500.00, 0.00, 0.00, 0.00
95, -168614.14, -168495.95, -168294.64, -168566.19, -168896.64, -168355.86, -117168.73, 187500.00, -168804.80, -168813.78, -168869.41, -168555.11, -168461.58, -168724.17, -168543.14, 187500.00, 0.00, 0.00, 0.00
96, -168614.14, -168495.95, -168294.64, -168566.19, -168896.64, -168355.86, -117168.73, 187500.00, -168674.70, -168871.58, -168725.00, -168715.98, -168350.14, -168924.59, -168444.66, 187500.00, 0.00, 0.00, 0.00
97, -168595.92, -168441.64, -167962.27, -168624.84, -168716.59, -168601.27, -117163.03, 187500.00, -168674.70, -168871.58, -168725.00, -168715.98, -168350.14, -168924.59, -168444.66, 187500.00, 0.00, 0.00, 0.00
98, -168595.92, -168441.64, -167962.27, -168624.84, -168716.59, -168601.27, -117163.03, 187500.00, -168491.59, -168671.06, -169222.08, -168549.63, -168394.48, -168324.45, -168528.22, 187500.00, 0.00, 0.00, 0.00
99, -168589.38, -168344.17, -168297.44, -168612.28, -168710.61, -168839.38, -117230.31, 187500.00, -168491.59, -168671.06, -169222.08, -168549.63, -168394.48, -168324.45, -168528.22, 187500.00, 0.00, 0.00, 0.00
100, -168589.38, -168344.17, -168297.44, -168612.28, -168710.61, -168839.38, -117230.31, 187500.00, -168130.44, -168891.45, -169665.31, -168670.95, -168344.50, -168667.69, -168414.64, 187500.00, 0.00, -0.07, 0.97
101, -168582.73, -168285.92, -168802.38, -168621.64, -168431.47, -169068.48, -117178.34, 187500.00, -168130.44, -168891.45, -169665.31, -168670.95, -168344.50, -168667.69, -168414.64, 187500.00, 0.00, 0.00, 0.00
102, -168582.73, -168285.92, -168802.38, -168621.64, -168431.47, -169068.48, -117178.34, 187500.00, -168174.91, -168715.16, -169550.97, -168541.11, -168378.39, -168690.22, -168478.13, 187500.00, 0.00, 0.00, 0.00
103, -168577.55, -168191.08, -169142.23, -168591.98, -168874.98, -169307.50, -117263.13, 187500.00, -168174.91, -168715.16, -169550.97, -168541.11, -168378.39, -168690.22, -168478.13, 187500.00, 0.00, 0.00, 0.00
104, -168577.55, -168191.08, -169142.23, -168591.98, -168874.98, -169307.50, -117263.13, 187500.00, -168411.63, -168806.67, -169464.17, -168670.66, -168330.17, -169454.38, -168401.36, 187500.00, 0.00, 0.00, 0.00
105, -168578.66, -168486.23, -169019.44, -168567.94, -168703.92, -170089.33, -117240.91, 187500.00, -168411.63, -168806.67, -169464.17, -168670.66, -168330.17, -169454.38, -168401.36, 187500.00, 0.00, 0.00, 0.00
106, -168578.66, -168486.23, -169019.44, -168567.94, -168703.92, -170089.33, -117240.91, 187500.00, -168700.39, -168752.61, -169392.63, -168542.81, -168364.33, -169273.98, -168471.48, 187500.00, 0.00, 0.00, 0.00
107, -168577.91, -168399.16, -168967.77, -168527.25, -168821.05, -170093.22, -117389.52, 187500.00, -168700.39, -168752.61, -169392.63, -168542.81, -168364.33, -169273.98, -168471.48, 187500.00, 0.00, 0.00, 0.00
108, -168577.91, -168399.16, -168967.77, -168527.25, -168821.05, -170093.22, -117389.52, 187500.00, -169161.02, -168793.66, -169354.92, -168692.97, -168359.30, -169425.17, -168453.14, 187500.00, 0.00, 0.00, 0.00
109, -168586.27, -168433.98, -168871.16, -168538.47, -168513.94, -170069.14, -117390.60, 187500.00, -169161.02, -168793.66, -169354.92, -168692.97, -168359.30, -169425.17, -168453.14, 187500.00, 0.00, 0.00, 0.00
110, -168586.27, -168433.98, -168871.16, -168538.47, -168513.94, -170069.14, -117390.60, 187500.00, -169061.30, -168670.50, -169292.39, -168580.05, -168374.75, -169211.50, -168471.53, 187500.00, -0.00, -0.08, 0.97
111, -168570.03, -168321.89, -168819.55, -168529.63, -168974.41, -169957.08, -117530.74, 187500.00, -169061.30, -168670.50, -169292.39, -168580.05, -168374.75, -169211.50, -168471.53, 187500.00, 0.00, 0.00, 0.00
112, -168570.03, -168321.89, -168819.55, -168529.63, -168974.41, -169957.08, -117530.74, 187500.00, -168958.81, -168885.64, -169255.11, -168699.05, -168364.38, -169302.70, -168459.59, 187500.00, 0.00, 0.00, 0.00
113, -168587.27, -168370.00, -168725.13, -168536.86, -168804.33, -169941.41, -117531.01, 187500.00, -168958.81, -168885.64, -169255.11, -168699.05, -168364.38, -169302.70, -168459.59, 187500.00, 0.00, 0.00, 0.00
114, -168587.27, -168370.00, -168725.13, -168536.86, -168804.33, -169941.41, -117531.01, 187500.00, -168837.22, -168861.98, -169205.50, -168602.63, -168376.38, -169161.08, -168475.98, 187500.00, 0.00, 0.00, 0.00
115, -168566.66, -168267.80, -168690.95, -168517.58, -168946.95, -169831.72, -117688.39, 187500.00, -168837.22, -168861.98, -169205.50, -168602.63, -168376.38, -169161.08, -168475.98, 187500.00, 0.00, 0.00, 0.00
116, -168566.66, -168267.80, -168690.95, -168517.58, -168946.95, -169831.72, -117688.39, 187500.00, -168745.27, -168854.55, -169179.31, -168673.33, -168397.88, -169204.22, -168493.05, 187500.00, 0.00, 0.00, 0.00
117, -168592.94, -168330.28, -168609.48, -168531.83, -168733.06, -169833.56, -117705.53, 187500.00, -168745.27, -168854.55, -169179.31, -168673.33, -168397.88, -169204.22, -168493.05, 187500.00, 0.00, 0.00, 0.00
118, -168592.94, -168330.28, -168609.48, -168531.83, -168733.06, -169833.56, -117705.53, 187500.00, -168629.95, -168817.63, -169132.89, -168628.02, -168372.44, -169132.30, -168468.80, 187500.00, 0.00, 0.00, 0.00
119, -168567.00, -168226.06, -168574.17, -168524.64, -168863.36, -169719.97, -117857.55, 187500.00, -168629.95, -168817.63, -169132.89, -168628.02, -168372.44, -169132.30, -168468.80, 187500.00, 0.00, 0.00, 0.00
120, -168567.00, -168226.06, -168574.17, -168524.64, -168863.36, -169719.97, -117857.55, 187500.00, -168533.00, -168778.89, -169102.63, -168662.45, -168430.45, -169104.02, -168504.44, 187500.00, -0.00, -0.07, 0.97
121, -168592.59, -168285.88, -168492.16, -168522.47, -168667.78, -169723.11, -117882.85, 187500.00, -168533.00, -168778.89, -169102.63, -168662.45, -168430.45, -169104.02, -168504.44, 187500.00, 0.00, 0.00, 0.00
122, -168592.59, -168285.88, -168492.16, -168522.47, -168667.78, -169723.11, -117882.85, 187500.00, -168353.89, -168754.50, -169055.30, -168663.52, -168349.28, -169100.39, -168470.64, 187500.00, 0.00, 0.00, 0.00
123, -168561.45, -168137.17, -168448.89, -168544.89, -168765.05, -169603.00, -118014.86, 187500.00, -168353.89, -168754.50, -169055.30, -168663.52, -168349.28, -169100.39, -168470.64, 187500.00, 0.00, 0.00, 0.00
124, -168561.45, -168137.17, -168448.89, -168544.89, -168765.05, -169603.00, -118014.86, 187500.00, -168120.45, -168787.31, -169014.23, -168610.02, -168430.33, -168989.17, -168506.31, 187500.00, 0.00, 0.00, 0.00
125, -168587.53, -168457.00, -168361.30, -168536.28, -168509.59, -169586.13, -118033.39, 187500.00, -168120.45, -168787.31, -169014.23, -168610.02, -168430.33, -168989.17, -168506.31, 187500.00, 0.00, 0.00, 0.00
126, -168587.53, -168457.00, -168361.30, -168536.28, -168509.59, -169586.13, -118033.39, 187500.00, -168371.38, -168902.67, -168946.91, -168650.44, -168358.50, -169029.05, -168433.94, 187500.00, 0.00, 0.00, 0.00
127, -168556.20, -168412.86, -168287.19, -168538.20, -168794.11, -169453.80, -118122.05, 187500.00, -168371.38, -168902.67, -168946.91, -168650.44, -168358.50, -169029.05, -168433.94, 187500.00, 0.00, 0.00, 0.00
128, -168556.20, -168412.86, -168287.19, -168538.20, -168794.11, -169453.80, -118122.05, 187500.00, -168675.59, -168795.67, -168875.88, -168611.89, -168433.89, -168840.52, -168496.77, 187500.00, 0.00, 0.00, 0.00
129, -168582.97, -168436.70, -168072.28, -168536.78, -168859.09, -169434.08, -118158.56, 187500.00, -168675.59, -168795.67, -168875.88, -168611.89, -168433.89, -168840.52, -168496.77, 187500.00, 0.00, 0.00, 0.00
130, -168582.97, -168436.70, -168072.28, -168536.78, -168859.09, -169434.08, -118158.56, 187500.00, -169117.77, -168830.52, -168649.27, -168689.66, -168322.36, -168939.19, -168416.28, 187500.00, -0.00, -0.07, 0.98
131, -168556.95, -168337.17, -167992.59, -168556.78, -168844.64, -169293.33, -118217.68, 187500.00, -169117.77, -168830.52, -168649.27, -168689.66, -168322.36, -168939.19, -168416.28, 187500.00, 0.00, 0.00, 0.00
132, -168556.95, -168337.17, -167992.59, -168556.78, -168844.64, -169293.33, -118217.68, 187500.00, -169017.58, -168693.89, -169093.48, -168548.78, -168404.63, -168681.33, -168498.39, 187500.00, 0.00, 0.00, 0.00
133, -168575.16, -168349.88, -168435.44, -168526.58, -168720.89, -169246.70, -118253.46, 187500.00, -169017.58, -168693.89, -169093.48, -168548.78, -168404.63, -168681.33, -168498.39, 187500.00, 0.00, 0.00, 0.00
134, -168575.16, -168349.88, -168435.44, -168526.58, -168720.89, -169246.70, -118253.46, 187500.00, -168883.41, -168730.78, -169631.30, -168665.23, -168313.19, -168815.05, -168399.58, 187500.00, 0.00, 0.00, 0.00
135, -168551.03, -168271.70, -169086.52, -168542.89, -168676.31, -169127.64, -118303.35, 187500.00, -168883.41, -168730.78, -169631.30, -168665.23, -168313.19, -168815.05, -168399.58, 187500.00, 0.00, 0.00, 0.00
136, -168551.03, -168271.70, -169086.52, -168542.89, -168676.31, -169127.64, -118303.35, 187500.00, -168742.03, -168637.41, -169579.94, -168529.33, -168398.89, -168270.31, -168504.59, 187500.00, 0.00, 0.00, 0.00
137, -168559.22, -168249.23, -169089.08, -168527.88, -168881.89, -169077.84, -118366.25, 187500.00, -168742.03, -168637.41, -169579.94, -168529.33, -168398.89, -168270.31, -168504.59, 187500.00, 0.00, 0.00, 0.00
138, -168559.22, -168249.23, -169089.08, -168527.88, -168881.89, -169077.84, -118366.25, 187500.00, -168618.69, -168900.33, -169517.50, -168668.00, -168303.28, -168730.31, -168409.77, 187500.00, 0.00, 0.00, 0.00
139, -168546.03, -168146.83, -168995.80, -168541.47, -168780.61, -168974.44, -118401.92, 187500.00, -168618.69, -168900.33, -169517.50, -168668.00, -168303.28, -168730.31, -168409.77, 187500.00, 0.00, 0.00, 0.00
140, -168546.03, -168146.83, -168995.80, -168541.47, -168780.61, -168974.44, -118401.92, 187500.00, -168481.19, -168738.67, -169451.55, -168524.55, -168397.95, -168881.64, -168493.05, 187500.00, 0.00, -0.08, 0.96
141, -168571.84, -168311.22, -168935.34, -168514.75, -168777.75, -168921.45, -118495.24, 187500.00, -168481.19, -168738.67, -169451.55, -168524.55, -168397.95, -168881.64, -168493.05, 187500.00, 0.00, 0.00, 0.00
142, -168571.84, -168311.22, -168935.34, -168514.75, -168777.75, -168921.45, -118495.24, 187500.00, -168237.64, -168806.20, -169401.97, -168679.28, -168299.59, -169589.11, -168412.86, 187500.00, 0.00, 0.00, 0.00
143, -168555.22, -168471.06, -168842.53, -168537.13, -168585.81, -168617.69, -118515.12, 187500.00, -168237.64, -168806.20, -169401.97, -168679.28, -168299.59, -169589.11, -168412.86, 187500.00, 0.00, 0.00, 0.00
144, -168555.22, -168471.06, -168842.53, -168537.13, -168585.81, -168617.69, -118515.12, 187500.00, -168135.06, -168627.09, -169328.73, -168508.64, -168377.88, -169265.28, -168495.00, 187500.00, 0.00, 0.00, 0.00
145, -168557.73, -168398.59, -168761.66, -168529.58, -168916.42, -168266.41, -118613.77, 187500.00, -168135.06, -168627.09, -169328.73, -168508.64, -168377.88, -169265.28, -168495.00, 187500.00, 0.00, 0.00, 0.00
146, -168557.73, -168398.59, -168761.66, -168529.58, -168916.42, -168266.41, -118613.77, 187500.00, -168387.53, -168877.69, -169262.72, -168658.48, -168312.97, -169453.20, -168382.61, 187500.00, 0.00, 0.00, 0.00
147, -168540.91, -168364.98, -168645.27, -168550.05, -168740.78, -168551.92, -118613.55, 187500.00, -168387.53, -168877.69, -169262.72, -168658.48, -168312.97, -169453.20, -168382.61, 187500.00, 0.00, 0.00, 0.00
148, -168540.91, -168364.98, -168645.27, -168550.05, -168740.78, -168551.92, -118613.55, 187500.00, -168662.33, -168746.09, -169182.38, -168514.42, -168361.06, -169132.53, -168459.97, 187500.00, 0.00, 0.00, 0.00
149, -168544.89, -168278.50, -168575.84, -168518.41, -168823.70, -168828.05, -118740.15, 187500.00, -168662.33, -168746.09, -169182.38, -168514.42, -168361.06, -169132.53, -168459.97, 187500.00, 0.00, 0.00, 0.00
150, -168544.89, -168278.50, -168575.84, -168518.41, -168823.70, -168828.05, -118740.15, 187500.00, -169118.44, -168792.86, -169124.94, -168665.55, -168305.61, -169318.64, -168397.34, 187500.00, -0.00, -0.08, 0.97
151, -168543.34, -168276.16, -168468.16, -168535.34, -168616.39, -169139.95, -118740.15, 187500.00, -169118.44, -168792.86, -169124.94, -168665.55, -168305.61, -169318.64, -168397.34, 187500.00, 0.00, 0.00, 0.00
152, -168543.34, -168276.16, -168468.16, -168535.34, -168616.39, -169139.95, -118740.15, 187500.00, -169022.36, -168630.42, -169053.72, -168516.55, -168359.14, -169037.00, -168462.23, 187500.00, 0.00, 0.00, 0.00
153, -168531.70, -168175.02, -168407.00, -168509.50, -168723.64, -169629.06, -118878.38, 187500.00, -169022.36, -168630.42, -169053.72, -168516.55, -168359.14, -169037.00, -168462.23, 187500.00, 0.00, 0.00, 0.00
154, -168531.70, -168175.02, -168407.00, -168509.50, -168723.64, -169629.06, -118878.38, 187500.00, -168910.25, -168873.53, -169007.50, -168650.83, -168332.14, -169190.27, -168409.91, 187500.00, 0.00, 0.00, 0.00
155, -168539.19, -168184.41, -168302.53, -168505.17, -168432.45, -170208.73, -118871.40, 187500.00, -168910.25, -168873.53, -169007.50, -168650.83, -168332.14, -169190.27, -168409.91, 187500.00, 0.00, 0.00, 0.00
156, -168539.19, -168184.41, -168302.53, -168505.17, -168432.45, -170208.73, -118871.40, 187500.00, -168772.31, -168798.98, -168942.25, -168536.86, -168353.47, -168953.03, -168435.14, 187500.00, 0.00, 0.00, 0.00
157, -168541.28, -168109.03, -168259.34, -168491.73, -168933.08, -170104.50, -119009.22, 187500.00, -168772.31, -168798.98, -168942.25, -168536.86, -168353.47, -168953.03, -168435.14, 187500.00, 0.00, 0.00, 0.00
158, -168541.28, -168109.03, -168259.34, -168491.73, -168933.08, -170104.50, -119009.22, 187500.00, -168665.31, -168813.38, -168901.88, -168662.66, -168328.03, -169063.52, -168430.05, 187500.00, 0.00, 0.00, 0.00
159, -168558.92, -168496.16, -167961.95, -168507.47, -168747.81, -170080.30, -118999.90, 187500.00, -168665.31, -168813.38, -168901.88, -168662.66, -168328.03, -169063.52, -168430.05, 187500.00, 0.00, 0.00, 0.00
160, -168558.92, -168496.16, -167961.95, -168507.47, -168747.81, -170080.30, -118999.90, 187500.00, -168529.27, -168704.14, -168712.84, -168547.61, -168335.78, -168885.55, -168441.38, 187500.00, 0.00, -0.08, 0.96
161, -168527.63, -168401.97, -168119.38, -168513.97, -168860.19, -169941.48, -119121.49, 187500.00, -168529.27, -168704.14, -168712.84, -168547.61, -168335.78, -168885.55, -168441.38, 187500.00, 0.00, 0.00, 0.00
162, -168527.63, -168401.97, -168119.38, -168513.97, -168860.19, -169941.48, -119121.49, 187500.00, -168368.39, -168836.25, -168768.19, -168603.25, -168334.02, -168908.14, -168413.03, 187500.00, 0.00, 0.00, 0.00
163, -168534.27, -168431.34, -168581.25, -168530.72, -168514.52, -169889.25, -119073.30, 187500.00, -168368.39, -168836.25, -168768.19, -168603.25, -168334.02, -168908.14, -168413.03, 187500.00, 0.00, 0.00, 0.00
164, -168534.27, -168431.34, -168581.25, -168530.72, -168514.52, -169889.25, -119073.30, 187500.00, -168028.61, -168817.92, -169390.97, -168550.83, -168328.72, -168761.09, -168382.50, 187500.00, 0.00, 0.00, 0.00
165, -168523.98, -168290.55, -169127.78, -168504.05, -168860.94, -169739.52, -119175.70, 187500.00, -168028.61, -168817.92, -169390.97, -168550.83, -168328.72, -168761.09, -168382.50, 187500.00, 0.00, 0.00, 0.00
166, -168523.98, -168290.55, -169127.78, -168504.05, -168860.94, -169739.52, -119175.70, 187500.00, -168261.61, -168776.66, -169606.27, -168618.27, -168333.23, -168734.28, -168438.06, 187500.00, 0.00, 0.00, 0.00
167, -168544.59, -168334.45, -169041.70, -168489.66, -168756.88, -169726.80, -119178.83, 187500.00, -168261.61, -168776.66, -169606.27, -168618.27, -168333.23, -168734.28, -168438.06, 187500.00, 0.00, 0.00, 0.00
168, -168544.59, -168334.45, -169041.70, -168489.66, -168756.88, -169726.80, -119178.83, 187500.00, -168534.25, -168756.05, -169541.16, -168592.30, -168292.92, -168582.03, -168394.14, 187500.00, 0.00, 0.00, 0.00
169, -168515.36, -168211.17, -168978.84, -168510.63, -168845.91, -169592.11, -119298.09, 187500.00, -168534.25, -168756.05, -169541.16, -168592.30, -168292.92, -168582.03, -168394.14, 187500.00, 0.00, 0.00, 0.00
170, -168515.36, -168211.17, -168978.84, -168510.63, -168845.91, -169592.11, -119298.09, 187500.00, -169007.44, -168686.11, -169485.81, -168564.69, -168347.17, -168388.63, -168446.77, 187500.00, -0.00, -0.08, 0.97
171, -168535.36, -168247.78, -168878.08, -168500.31, -168648.02, -169577.98, -119310.10, 187500.00, -169007.44, -168686.11, -169485.81, -168564.69, -168347.17, -168388.63, -168446.77, 187500.00, 0.00, 0.00, 0.00
172, -168535.36, -168247.78, -168878.08, -168500.31, -168648.02, -169577.98, -119310.10, 187500.00, -169055.17, -168671.84, -169425.13, -168597.61, -168312.25, -169024.22, -168392.63, 187500.00, 0.00, 0.00, 0.00
173, -168517.97, -168096.56, -168825.64, -168496.78, -168716.89, -169455.52, -119424.43, 187500.00, -169055.17, -168671.84, -169425.13, -168597.61, -168312.25, -169024.22, -168392.63, 187500.00, 0.00, 0.00, 0.00
174, -168517.97, -168096.56, -168825.64, -168496.78, -168716.89, -169455.52, -119424.43, 187500.00, -168942.61, -168694.52, -169383.55, -168567.84, -168386.06, -169028.27, -168453.22, 187500.00, 0.00, 0.00, 0.00
175, -168547.80, -168391.39, -168745.27, -168490.28, -168494.91, -169441.38, -119452.16, 187500.00, -168942.61, -168694.52, -169383.55, -168567.84, -168386.06, -169028.27, -168453.22, 187500.00, 0.00, 0.00, 0.00
176, -168547.80, -168391.39, -168745.27, -168490.28, -168494.91, -169441.38, -119452.16, 187500.00, -168816.39, -168860.14, -169324.05, -168633.63, -168283.33, -169116.00, -168381.11, 187500.00, 0.00, 0.00, 0.00
177, -168516.36, -168396.27, -168677.86, -168475.28, -168732.64, -169326.66, -119538.84, 187500.00, -168816.39, -168860.14, -169324.05, -168633.63, -168283.33, -169116.00, -168381.11, 187500.00, 0.00, 0.00, 0.00
178, -168516.36, -168396.27, -168677.86, -168475.28, -168732.64, -169326.66, -119538.84, 187500.00, -168699.25, -168740.28, -169276.17, -168512.34, -168385.75, -168909.64, -168449.52, 187500.00, 0.00, 0.00, 0.00
179, -168551.02, -168429.63, -168612.61, -168470.91, -168850.02, -169322.55, -119608.92, 187500.00, -168699.25, -168740.28, -169276.17, -168512.34, -168385.75, -168909.64, -168449.52, 187500.00, 0.00, 0.00, 0.00
180, -168551.02, -168429.63, -168612.61, -168470.91, -168850.02, -169322.55, -119608.92, 187500.00, -168596.31, -168798.05, -169238.53, -168638.83, -168286.33, -169071.22, -168383.38, 187500.00, 0.00, -0.08, 0.97
181, -168523.91, -168360.36, -168555.58, -168481.91, -168840.17, -169224.94, -119696.96, 187500.00, -168596.31, -168798.05, -169238.53, -168638.83, -168286.33, -169071.22, -168383.38, 187500.00, 0.00, 0.00, 0.00
182, -168523.91, -168360.36, -168555.58, -168481.91, -168840.17, -169224.94, -119696.96, 187500.00, -168487.75, -168677.41, -169200.95, -168538.23, -168414.28, -168820.91, -168460.17, 187500.00, 0.00, 0.00, 0.00
183, -168547.30, -168371.23, -168495.05, -168478.69, -168794.00, -169205.84, -119784.05, 187500.00, -168487.75, -168677.41, -169200.95, -168538.23, -168414.28, -168820.91, -168460.17, 187500.00, 0.00, 0.00, 0.00
184, -168547.30, -168371.23, -168495.05, -168478.69, -168794.00, -169205.84, -119784.05, 187500.00, -168342.17, -168879.19, -169161.19, -168683.95, -168276.53, -169013.77, -168384.11, 187500.00, 0.00, 0.00, 0.00
185, -168516.97, -168316.56, -168424.59, -168484.14, -168730.88, -169114.81, -119848.91, 187500.00, -168342.17, -168879.19, -169161.19, -168683.95, -168276.53, -169013.77, -168384.11, 187500.00, 0.00, 0.00, 0.00
186, -168516.97, -168316.56, -168424.59, -168484.14, -168730.88, -169114.81, -119848.91, 187500.00, -168085.00, -168744.80, -169113.66, -168491.42, -168403.41, -168724.80, -168456.28, 187500.00, 0.00, 0.00, 0.00
187, -168537.47, -168304.83, -168365.69, -168470.28, -168718.88, -169076.30, -119951.95, 187500.00, -168085.00, -168744.80, -169113.66, -168491.42, -168403.41, -168724.80, -168456.28, 187500.00, 0.00, 0.00, 0.00
188, -168537.47, -168304.83, -168365.69, -168470.28, -168718.88, -169076.30, -119951.95, 187500.00, -168353.42, -168826.75, -169068.30, -168656.22, -168278.50, -168936.89, -168373.67, 187500.00, 0.00, 0.00, 0.00
189, -168518.27, -168258.22, -168273.45, -168502.78, -168574.38, -168989.00, -119980.96, 187500.00, -168353.42, -168826.75, -169068.30, -168656.22, -168278.50, -168936.89, -168373.67, 187500.00, -0.00, -0.08, 0.98
190, -168518.27, -168258.22, -168273.45, -168502.78, -168574.38, -168989.00, -119980.96, 187500.00, -168623.97, -168654.30, -168998.11, -168481.45, -168374.17, -168394.69, -168464.53, 187500.00, 0.00, 0.00, 0.00
191, -168516.33, -168201.00, -168164.48, -168478.64, -168895.72, -168917.83, -120075.34, 187500.00, -168623.97, -168654.30, -168998.11, -168481.45, -168374.17, -168394.69, -168464.53, 187500.00, 0.00, 0.00, 0.00
192, -168516.33, -168201.00, -168164.48, -168478.64, -168895.72, -168917.83, -120075.34, 187500.00, -169080.09, -168859.48, -168939.08, -168633.94, -168291.86, -168867.98, -168372.02, 187500.00, 0.00, 0.00, 0.00
193, -168506.94, -168154.48, -167863.78, -168511.92, -168726.00, -168667.42, -120070.59, 187500.00, -169080.09, -168859.48, -168939.08, -168633.94, -168291.86, -168867.98, -168372.02, 187500.00, 0.00, 0.00, 0.00
194, -168506.94, -168154.48, -167863.78, -168511.92, -168726.00, -168667.42, -120070.59, 187500.00, -169005.41, -168704.14, -168864.56, -168480.81, -168358.78, -168941.44, -168447.97, 187500.00, 0.00, 0.00, 0.00
195, -168509.77, -168172.91, -168256.86, -168481.34, -168787.34, -168224.47, -120170.28, 187500.00, -169005.41, -168704.14, -168864.56, -168480.81, -168358.78, -168941.44, -168447.97, 187500.00, 0.00, 0.00, 0.00
196, -168509.77, -168172.91, -168256.86, -168481.34, -168787.34, -168224.47, -120170.28, 187500.00, -168866.44, -168735.84, -168677.17, -168618.48, -168276.89, -169115.66, -168361.02, 187500.00, 0.00, 0.00, 0.00
197, -168507.88, -168423.05, -168852.25, -168524.53, -168482.30, -168481.03, -120139.91, 187500.00, -168866.44, -168735.84, -168677.17, -168618.48, -168276.89, -169115.66, -168361.02, 187500.00, 0.00, 0.00, 0.00
198, -168507.88, -168423.05, -168852.25, -168524.53, -168482.30, -168481.03, -120139.91, 187500.00, -168696.03, -168561.47, -168672.14, -168458.13, -168311.11, -168786.23, -168411.69, 187500.00, 0.00, 0.00, 0.00
199, -168502.11, -168305.52, -169055.72, -168500.72, -168843.73, -168696.39, -120237.41, 187500.00, -168696.03, -168561.47, -168672.14, -168458.13, -168311.11, -168786.23, -168411.69, 187500.00, 0.00, -0.08, 0.98
200, -168502.11, -168305.52, -169055.72, -168500.72, -168843.73, -168696.39, -120237.41, 187500.00, -168558.28, -168835.17, -169294.83, -168586.64, -168273.84, -168925.09, -168332.95, 187500.00, 0.00, 0.00, 0.00
201, -168499.58, -168299.72, -168928.11, -168497.22, -168654.03, -169001.58, -120216.40, 187500.00, -168558.28, -168835.17, -169294.83, -168586.64, -168273.84, -168925.09, -168332.95, 187500.00, 0.00, 0.00, 0.00
202, -168499.58, -168299.72, -168928.11, -168497.22, -168654.03, -169001.58, -120216.40, 187500.00, -168409.33, -168733.97, -169548.66, -168484.06, -168318.83, -168662.92, -168390.73, 187500.00, 0.00, 0.00, 0.00
203, -168496.11, -168191.58, -168870.03, -168459.64, -168783.81, -169370.86, -120359.89, 187500.00, -168409.33, -168733.97, -169548.66, -168484.06, -168318.83, -168662.92, -168390.73, 187500.00, 0.00, 0.00, 0.00
204, -168496.11, -168191.58, -168870.03, -168459.64, -168783.81, -169370.86, -120359.89, 187500.00, -168213.75, -168751.78, -169498.08, -168625.53, -168276.05, -168791.97, -168375.80, 187500.00, 0.00, 0.00, 0.00
205, -168506.33, -168221.41, -168764.45, -168475.78, -168474.56, -170122.63, -120355.09, 187500.00, -168213.75, -168751.78, -169498.08, -168625.53, -168276.05, -168791.97, -168375.80, 187500.00, 0.00, 0.00, 0.00
206, -168506.33, -168221.41, -168764.45, -168475.78, -168474.56, -170122.63, -120355.09, 187500.00, -168005.34, -168626.56, -169423.73, -168501.72, -168282.86, -168421.17, -168390.48, 187500.00, 0.00, 0.00, 0.00
207, -168485.00, -168069.11, -168697.95, -168484.52, -168872.36, -170017.36, -120472.03, 187500.00, -168005.34, -168626.56, -169423.73, -168501.72, -168282.86, -168421.17, -168390.48, 187500.00, 0.00, 0.00, 0.00
208, -168485.00, -168069.11, -168697.95, -168484.52, -168872.36, -170017.36, -120472.03, 187500.00, -168243.50, -168772.56, -169355.83, -168567.34, -168291.52, -168467.55, -168355.55, 187500.00, 0.00, 0.00, 0.00
209, -168494.70, -168392.31, -168576.89, -168488.88, -168674.23, -169970.02, -120434.03, 187500.00, -168243.50, -168772.56, -169355.83, -168567.34, -168291.52, -168467.55, -168355.55, 187500.00, -0.00, -0.08, 0.98
210, -168494.70, -168392.31, -168576.89, -168488.88, -168674.23, -169970.02, -120434.03, 187500.00, -168483.63, -168750.84, -169270.09, -168501.23, -168308.05, -168666.55, -168358.14, 187500.00, 0.00, 0.00, 0.00
211, -168484.92, -168282.44, -168506.83, -168475.39, -168777.70, -169824.97, -120553.68, 187500.00, -168483.63, -168750.84, -169270.09, -168501.23, -168308.05, -168666.55, -168358.14, 187500.00, 0.00, 0.00, 0.00
212, -168484.92, -168282.44, -168506.83, -168475.39, -168777.70, -169824.97, -120553.68, 187500.00, -168933.77, -168716.58, -169213.45, -168575.38, -168304.73, -169274.14, -168395.33, 187500.00, 0.00, 0.00, 0.00
213, -168507.69, -168327.92, -168407.14, -168452.19, -168485.30, -169812.72, -120553.88, 187500.00, -168933.77, -168716.58, -169213.45, -168575.38, -168304.73, -169274.14, -168395.33, 187500.00, 0.00, 0.00, 0.00
214, -168507.69, -168327.92, -168407.14, -168452.19, -168485.30, -169812.72, -120553.88, 187500.00, -169032.30, -168658.45, -169152.86, -168533.80, -168255.61, -169371.28, -168362.55, 187500.00, 0.00, 0.00, 0.00
215, -168479.69, -168207.88, -168354.30, -168446.08, -168810.56, -169690.28, -120675.43, 187500.00, -169032.30, -168658.45, -169152.86, -168533.80, -168255.61, -169371.28, -168362.55, 187500.00, 0.00, 0.00, 0.00
216, -168479.69, -168207.88, -168354.30, -168446.08, -168810.56, -169690.28, -120675.43, 187500.00, -168922.16, -168747.91, -169112.16, -168529.70, -168306.97, -169309.23, -168389.63, 187500.00, 0.00, 0.00, 0.00
217, -168502.69, -168258.50, -168265.11, -168437.72, -168736.70, -169686.86, -120690.07, 187500.00, -168922.16, -168747.91, -169112.16, -168529.70, -168306.97, -169309.23, -168389.63, 187500.00, 0.00, 0.00, 0.00
218, -168502.69, -168258.50, -168265.11, -168437.72, -168736.70, -169686.86, -120690.07, 187500.00, -168801.17, -168829.17, -169062.39, -168549.98, -168281.88, -169317.78, -168347.77, 187500.00, 0.00, 0.00, 0.00
219, -168478.03, -168155.67, -168219.56, -168438.89, -168824.55, -169571.02, -120817.52, 187500.00, -168801.17, -168829.17, -169062.39, -168549.98, -168281.88, -169317.78, -168347.77, 187500.00, -0.00, -0.08, 0.97
220, -168478.03, -168155.67, -168219.56, -168438.89, -168824.55, -169571.02, -120817.52, 187500.00, -168695.45, -168751.95, -169028.33, -168548.86, -168350.97, -169199.28, -168418.20, 187500.00, 0.00, 0.00, 0.00
221, -168508.48, -168207.48, -168002.03, -168429.69, -168667.80, -169573.69, -120858.65, 187500.00, -168695.45, -168751.95, -169028.33, -168548.86, -168350.97, -169199.28, -168418.20, 187500.00, 0.00, 0.00, 0.00
222, -168508.48, -168207.48, -168002.03, -168429.69, -168667.80, -169573.69, -120858.65, 187500.00, -168576.52, -168769.77, -168977.63, -168600.83, -168238.36, -169269.67, -168353.52, 187500.00, 0.00, 0.00, 0.00
223, -168467.94, -168116.53, -167986.08, -168443.77, -168703.89, -169450.41, -120953.98, 187500.00, -168576.52, -168769.77, -168977.63, -168600.83, -168238.36, -169269.67, -168353.52, 187500.00, 0.00, 0.00, 0.00
224, -168467.94, -168116.53, -167986.08, -168443.77, -168703.89, -169450.41, -120953.98, 187500.00, -168453.78, -168652.33, -168926.28, -168480.94, -168333.59, -169072.59, -168400.89, 187500.00, 0.00, 0.00, 0.00
225, -168483.33, -168156.48, -168470.86, -168432.28, -168524.34, -169429.70, -120986.88, 187500.00, -168453.78, -168652.33, -168926.28, -168480.94, -168333.59, -169072.59, -168400.89, 187500.00, 0.00, 0.00, 0.00
226, -168483.33, -168156.48, -168470.86, -168432.28, -168524.34, -169429.70, -120986.88, 187500.00, -168288.16, -168673.52, -168864.08, -168574.91, -168233.73, -169189.72, -168317.53, 187500.00, 0.00, 0.00, 0.00
227, -168471.66, -168014.38, -169072.28, -168460.55, -168639.77, -169308.98, -121044.23, 187500.00, -168288.16, -168673.52, -168864.08, -168574.91, -168233.73, -169189.72, -168317.53, 187500.00, 0.00, 0.00, 0.00
228, -168471.66, -168014.38, -169072.28, -168460.55, -168639.77, -169308.98, -121044.23, 187500.00, -167973.47, -168576.81, -168790.91, -168462.31, -168320.09, -168931.39, -168415.34, 187500.00, 0.00, 0.00, 0.00
229, -168497.75, -168300.84, -169027.19, -168450.97, -168791.94, -169272.84, -121092.20, 187500.00, -167973.47, -168576.81, -168790.91, -168462.31, -168320.09, -168931.39, -168415.34, 187500.00, 0.00, -0.08, 0.97
230, -168497.75, -168300.84, -169027.19, -168450.97, -168791.94, -169272.84, -121092.20, 187500.00, -168193.05, -168820.84, -168552.23, -168581.52, -168236.13, -169088.59, -168298.39, 187500.00, 0.00, 0.00, 0.00
231, -168471.33, -168358.77, -168931.84, -168479.98, -168714.16, -169149.22, -121129.42, 187500.00, -168193.05, -168820.84, -168552.23, -168581.52, -168236.13, -169088.59, -168298.39, 187500.00, 0.00, 0.00, 0.00
232, -168471.33, -168358.77, -168931.84, -168479.98, -168714.16, -169149.22, -121129.42, 187500.00, -168445.00, -168683.30, -168955.41, -168443.88, -168308.00, -168784.47, -168387.75, 187500.00, 0.00, 0.00, 0.00
233, -168483.80, -168330.78, -168847.00, -168440.59, -168651.70, -169094.09, -121196.27, 187500.00, -168445.00, -168683.30, -168955.41, -168443.88, -168308.00, -168784.47, -168387.75, 187500.00, 0.00, 0.00, 0.00
234, -168483.80, -168330.78, -168847.00, -168440.59, -168651.70, -169094.09, -121196.27, 187500.00, -168850.81, -168757.61, -169534.69, -168590.94, -168213.75, -168978.09, -168284.47, 187500.00, 0.00, 0.00, 0.00
235, -168471.33, -168272.78, -168753.78, -168452.59, -168542.81, -169001.59, -121225.58, 187500.00, -168850.81, -168757.61, -169534.69, -168590.94, -168213.75, -168978.09, -168284.47, 187500.00, 0.00, 0.00, 0.00
236, -168471.33, -168272.78, -168753.78, -168452.59, -168542.81, -169001.59, -121225.58, 187500.00, -169068.72, -168608.17, -169502.91, -168434.53, -168308.08, -168668.88, -168407.63, 187500.00, 0.00, 0.00, 0.00
237, -168486.64, -168242.02, -168695.56, -168422.09, -168856.20, -168957.52, -121330.85, 187500.00, -169068.72, -168608.17, -169502.91, -168434.53, -168308.08, -168668.88, -168407.63, 187500.00, 0.00, 0.00, 0.00
238, -168486.64, -168242.02, -168695.56, -168422.09, -168856.20, -168957.52, -121330.85, 187500.00, -168966.91, -168848.06, -169464.23, -168606.67, -168235.89, -168894.25, -168327.42, 187500.00, 0.00, 0.00, 0.00
239, -168472.95, -168223.05, -168614.58, -168431.13, -168720.17, -168894.33, -121361.48, 187500.00, -168966.91, -168848.06, -169464.23, -168606.67, -168235.89, -168894.25, -168327.42, 187500.00, 0.00, -0.08, 0.97
240, -168472.95, -168223.05, -168614.58, -168431.13, -168720.17, -168894.33, -121361.48, 187500.00, -168846.70, -168709.67, -169417.08, -168441.31, -168332.38, -168598.13, -168408.28, 187500.00, 0.00, 0.00, 0.00
241, -168489.33, -168183.19, -168573.86, -168421.31, -168797.47, -168839.39, -121497.10, 187500.00, -168846.70, -168709.67, -169417.08, -168441.31, -168332.38, -168598.13, -168408.28, 187500.00, 0.00, 0.00, 0.00
242, -168489.33, -168183.19, -168573.86, -168421.31, -168797.47, -168839.39, -121497.10, 187500.00, -168750.69, -168786.44, -169383.97, -168618.11, -168233.50, -168824.16, -168339.08, 187500.00, 0.00, 0.00, 0.00
243, -168479.84, -168189.23, -168490.42, -168431.75, -168623.19, -168703.25, -121517.98, 187500.00, -168750.69, -168786.44, -169383.97, -168618.11, -168233.50, -168824.16, -168339.08, 187500.00, 0.00, 0.00, 0.00
244, -168479.84, -168189.23, -168490.42, -168431.75, -168623.19, -168703.25, -121517.98, 187500.00, -168625.69, -168646.70, -169330.64, -168442.45, -168322.56, -168332.84, -168411.42, 187500.00, 0.00, 0.00, 0.00
245, -168462.00, -168110.95, -168437.05, -168446.08, -168722.70, -168182.28, -121654.53, 187500.00, -168625.69, -168646.70, -169330.64, -168442.45, -168322.56, -168332.84, -168411.42, 187500.00, 0.00, 0.00, 0.00
246, -168462.00, -168110.95, -168437.05, -168446.08, -168722.70, -168182.28, -121654.53, 187500.00, -168502.44, -168679.89, -169267.72, -168583.11, -168245.00, -168605.59, -168331.70, 187500.00, 0.00, 0.00, 0.00
247, -168457.52, -168065.00, -168310.00, -168475.55, -168405.30, -168435.16, -121631.98, 187500.00, -168502.44, -168679.89, -169267.72, -168583.11, -168245.00, -168605.59, -168331.70, 187500.00, 0.00, 0.00, 0.00
248, -168457.52, -168065.00, -168310.00, -168475.55, -168405.30, -168435.16, -121631.98, 187500.00, -168287.17, -168502.08, -169169.03, -168434.83, -168269.02, -168693.22, -168370.19, 187500.00, 0.00, 0.00, 0.00
249, -168455.84, -168036.23, -168227.61, -168456.67, -168807.39, -168642.66, -121731.66, 187500.00, -168287.17, -168502.08, -169169.03, -168434.83, -168269.02, -168693.22, -168370.19, 187500.00, 0.00, -0.08, 0.97
250, -168455.84, -168036.23, -168227.61, -168456.67, -168807.39, -168642.66, -121731.66, 187500.00, -167994.97, -168763.33, -169092.02, -168557.83, -168230.44, -169415.17, -168310.75, 187500.00, 0.00, 0.00, 0.00
251, -168461.00, -168378.80, -167889.80, -168467.73, -168609.95, -168948.84, -121695.32, 187500.00, -167994.97, -168763.33, -169092.02, -168557.83, -168230.44, -169415.17, -168310.75, 187500.00, 0.00, 0.00, 0.00
252, -168461.00, -168378.80, -167889.80, -168467.73, -168609.95, -168948.84, -121695.32, 187500.00, -168205.81, -168690.89, -168999.14, -168428.75, -168227.45, -169229.66, -168331.41, 187500.00, 0.00, 0.00, 0.00
253, -168450.56, -168269.84, -168041.73, -168438.41, -168721.27, -169226.73, -121807.64, 187500.00, -168205.81, -168690.89, -168999.14, -168428.75, -168227.45, -169229.66, -168331.41, 187500.00, 0.00, 0.00, 0.00
254, -168450.56, -168269.84, -168041.73, -168438.41, -168721.27, -169226.73, -121807.64, 187500.00, -168471.11, -168679.73, -168925.45, -168500.92, -168236.61, -169291.59, -168304.45, 187500.00, 0.00, 0.00, 0.00
255, -168453.22, -168294.09, -168526.22, -168444.55, -168376.72, -170016.45, -121761.68, 187500.00, -168471.11, -168679.73, -168925.45, -168500.92, -168236.61, -169291.59, -168304.45, 187500.00, 0.00, 0.00, 0.00
0, -168453.22, -168294.09, -168526.22, -168444.55, -168376.72, -170016.45, -121761.68, 187500.00, -168874.00, -168556.59, -168831.77, -168429.06, -168239.72, -169099.20, -168304.31, 187500.00, 0.00, 0.00, 0.00
1, -168443.05, -168161.94, -169023.78, -168414.83, -168803.83, -169953.55, -121872.10, 187500.00, -168874.00, -168556.59, -168831.77, -168429.06, -168239.72, -169099.20, -168304.31, 187500.00, 0.00, 0.00, 0.00
2, -168443.05, -168161.94, -169023.78, -168414.83, -168803.83, -169953.55, -121872.10, 187500.00, -169021.97, -168707.16, -168786.98, -168531.77, -168236.36, -169123.19, -168343.88, 187500.00, 0.00, 0.00, 0.00
3, -168463.91, -168211.94, -168932.52, -168403.77, -168671.80, -169940.38, -121867.56, 187500.00, -169021.97, -168707.16, -168786.98, -168531.77, -168236.36, -169123.19, -168343.88, 187500.00, -0.00, -0.08, 0.97
4, -168463.91, -168211.94, -168932.52, -168403.77, -168671.80, -169940.38, -121867.56, 187500.00, -168895.75, -168745.78, -168618.53, -168480.83, -168221.03, -169036.58, -168317.34, 187500.00, 0.00, 0.00, 0.00
5, -168431.23, -168100.73, -168887.09, -168407.14, -168793.28, -169821.02, -122006.41, 187500.00, -168895.75, -168745.78, -168618.53, -168480.83, -168221.03, -169036.58, -168317.34, 187500.00, 0.00, 0.00, 0.00
6, -168431.23, -168100.73, -168887.09, -168407.14, -168793.28, -169821.02, -122006.41, 187500.00, -168786.56, -168710.30, -168672.69, -168498.44, -168261.89, -169001.31, -168340.09, 187500.00, 0.00, 0.00, 0.00
7, -168449.05, -168141.14, -168784.98, -168424.30, -168575.23, -169801.45, -122002.91, 187500.00, -168786.56, -168710.30, -168672.69, -168498.44, -168261.89, -169001.31, -168340.09, 187500.00, 0.00, 0.00, 0.00
8, -168449.05, -168141.14, -168784.98, -168424.30, -168575.23, -169801.45, -122002.91, 187500.00, -168648.52, -168691.05, -169334.48, -168503.78, -168229.22, -168965.39, -168293.47, 187500.00, 0.00, 0.00, 0.00
9, -168439.34, -167983.86, -168730.45, -168410.75, -168662.22, -169670.34, -122117.48, 187500.00, -168648.52, -168691.05, -169334.48, -168503.78, -168229.22, -168965.39, -168293.47, 187500.00, 0.00, 0.00, 0.00
10, -168439.34, -167983.86, -168730.45, -168410.75, -168662.22, -169670.34, -122117.48, 187500.00, -168533.56, -168615.14, -169518.64, -168507.03, -168288.20, -168861.80, -168363.30, 187500.00, 0.00, 0.00, 0.00
11, -168471.00, -168357.00, -168649.58, -168403.78, -168414.80, -169663.38, -122137.84, 187500.00, -168533.56, -168615.14, -169518.64, -168507.03, -168288.20, -168861.80, -168363.30, 187500.00, 0.00, 0.00, 0.00
12, -168471.00, -168357.00, -168649.58, -168403.78, -168414.80, -169663.38, -122137.84, 187500.00, -168405.95, -168603.19, -169455.44, -168540.22, -168210.58, -168906.11, -168297.81, 187500.00, 0.00, 0.00, 0.00
13, -168434.94, -168317.17, -168586.97, -168403.05, -168688.75, -169544.61, -122238.04, 187500.00, -168405.95, -168603.19, -169455.44, -168540.22, -168210.58, -168906.11, -168297.81, 187500.00, -0.00, -0.08, 0.97
14, -168434.94, -168317.17, -168586.97, -168403.05, -168688.75, -169544.61, -122238.04, 187500.00, -168287.91, -168633.20, -169410.81, -168443.52, -168287.06, -168737.56, -168362.44, 187500.00, 0.00, 0.00, 0.00
15, -168467.34, -168351.95, -168506.63, -168396.03, -168736.00, -169535.94, -122276.38, 187500.00, -168287.91, -168633.20, -169410.81, -168443.52, -168287.06, -168737.56, -168362.44, 187500.00, 0.00, 0.00, 0.00
16, -168467.34, -168351.95, -168506.63, -168396.03, -168736.00, -169535.94, -122276.38, 187500.00, -167972.44, -168797.63, -169359.75, -168534.42, -168197.19, -168847.08, -168288.78, 187500.00, 0.00, 0.00, 0.00
17, -168437.06, -168256.23, -168439.48, -168418.72, -168742.05, -169420.83, -122356.93, 187500.00, -167972.44, -168797.63, -169359.75, -168534.42, -168197.19, -168847.08, -168288.78, 187500.00, 0.00, 0.00, 0.00
18, -168437.06, -168256.23, -168439.48, -168418.72, -168742.05, -169420.83, -122356.93, 187500.00, -168140.28, -168680.77, -169309.03, -168440.70, -168294.19, -168619.19, -168383.08, 187500.00, 0.00, 0.00, 0.00
19, -168460.94, -168272.89, -168363.55, -168397.80, -168646.92, -169399.63, -122413.17, 187500.00, -168140.28, -168680.77, -169309.03, -168440.70, -168294.19, -168619.19, -168383.08, 187500.00, 0.00, 0.00, 0.00
20, -168460.94, -168272.89, -168363.55, -168397.80, -168646.92, -169399.63, -122413.17, 187500.00, -168428.88, -168743.39, -169256.33, -168554.52, -168188.02, -168774.78, -168291.78, 187500.00, 0.00, 0.00, 0.00
21, -168431.45, -168195.84, -168289.97, -168415.56, -168608.67, -169292.80, -122476.49, 187500.00, -168428.88, -168743.39, -169256.33, -168554.52, -168188.02, -168774.78, -168291.78, 187500.00, 0.00, 0.00, 0.00
22, -168431.45, -168195.84, -168289.97, -168415.56, -168608.67, -169292.80, -122476.49, 187500.00, -168889.69, -168614.63, -169206.67, -168404.67, -168294.77, -168508.88, -168380.84, 187500.00, 0.00, 0.00, 0.00
23, -168459.17, -168202.45, -168228.64, -168384.45, -168537.33, -169271.08, -122562.77, 187500.00, -168889.69, -168614.63, -169206.67, -168404.67, -168294.77, -168508.88, -168380.84, 187500.00, 0.00, -0.08, 0.97
24, -168459.17, -168202.45, -168228.64, -168384.45, -168537.33, -169271.08, -122562.77, 187500.00, -169001.42, -168683.77, -169161.39, -168557.92, -168183.02, -168700.41, -168296.27, 187500.00, 0.00, 0.00, 0.00
25, -168431.45, -168141.30, -168144.39, -168407.33, -168512.81, -169180.73, -122603.31, 187500.00, -169001.42, -168683.77, -169161.39, -168557.92, -168183.02, -168700.41, -168296.27, 187500.00, 0.00, 0.00, 0.00
26, -168431.45, -168141.30, -168144.39, -168407.33, -168512.81, -169180.73, -122603.31, 187500.00, -168860.72, -168526.92, -169095.17, -168399.02, -168282.55, -168138.73, -168380.27, 187500.00, 0.00, 0.00, 0.00
27, -168427.36, -168102.80, -167859.63, -168415.66, -168787.66, -169123.44, -122680.27, 187500.00, -168860.72, -168526.92, -169095.17, -168399.02, -168282.55, -168138.73, -168380.27, 187500.00, 0.00, 0.00, 0.00
28, -168427.36, -168102.80, -167859.63, -168415.66, -168787.66, -169123.44, -122680.27, 187500.00, -168729.92, -168774.59, -169030.39, -168544.02, -168192.11, -168598.44, -168270.81, 187500.00, 0.00, 0.00, 0.00
29, -168424.81, -168019.08, -167973.17, -168433.47, -168630.36, -169020.33, -122674.77, 187500.00, -168729.92, -168774.59, -169030.39, -168544.02, -168192.11, -168598.44, -168270.81, 187500.00, 0.00, 0.00, 0.00
30, -168424.81, -168019.08, -167973.17, -168433.47, -168630.36, -169020.33, -122674.77, 187500.00, -168571.59, -168599.09, -168946.81, -168394.59, -168258.67, -168683.53, -168352.16, 187500.00, 0.00, 0.00, 0.00
31, -168431.39, -168151.16, -168512.64, -168397.05, -168639.91, -168933.23, -122749.52, 187500.00, -168571.59, -168599.09, -168946.81, -168394.59, -168258.67, -168683.53, -168352.16, 187500.00, 0.00, 0.00, 0.00
32, -168431.39, -168151.16, -168512.64, -168397.05, -168639.91, -168933.23, -122749.52, 187500.00, -168443.36, -168645.77, -168882.33, -168550.50, -168192.53, -169451.14, -168264.55, 187500.00, 0.00, 0.00, 0.00
33, -168428.81, -168363.14, -168992.75, -168404.34, -168421.55, -168863.47, -122741.70, 187500.00, -168443.36, -168645.77, -168882.33, -168550.50, -168192.53, -169451.14, -168264.55, 187500.00, -0.00, -0.08, 0.98
34, -168428.81, -168363.14, -168992.75, -168404.34, -168421.55, -168863.47, -122741.70, 187500.00, -168303.06, -168483.73, -168817.89, -168400.55, -168265.02, -169167.00, -168350.06, 187500.00, 0.00, 0.00, 0.00
35, -168434.16, -168292.14, -168945.08, -168378.81, -168836.75, -168789.28, -122861.21, 187500.00, -168303.06, -168483.73, -168817.89, -168400.55, -168265.02, -169167.00, -168350.06, 187500.00, 0.00, 0.00, 0.00
36, -168434.16, -168292.14, -168945.08, -168378.81, -168836.75, -168789.28, -122861.21, 187500.00, -168004.64, -168774.66, -168780.88, -168563.48, -168202.06, -169365.00, -168279.70, 187500.00, 0.00, 0.00, 0.00
37, -168428.91, -168299.06, -168847.98, -168401.55, -168647.38, -168629.78, -122858.93, 187500.00, -168004.64, -168774.66, -168780.88, -168563.48, -168202.06, -169365.00, -168279.70, 187500.00, 0.00, 0.00, 0.00
38, -168428.91, -168299.06, -168847.98, -168401.55, -168647.38, -168629.78, -122858.93, 187500.00, -168138.89, -168671.22, -168665.44, -168409.64, -168254.14, -169083.47, -168328.75, 187500.00, 0.00, 0.00, 0.00
39, -168420.19, -168198.50, -168785.59, -168409.69, -168754.17, -168119.22, -122986.38, 187500.00, -168138.89, -168671.22, -168665.44, -168409.64, -168254.14, -169083.47, -168328.75, 187500.00, 0.00, 0.00, 0.00
40, -168420.19, -168198.50, -168785.59, -168409.69, -168754.17, -168119.22, -122986.38, 187500.00, -168407.17, -168705.13, -168522.89, -168549.78, -168198.56, -169221.83, -168266.08, 187500.00, 0.00, 0.00, 0.00
41, -168417.84, -168184.48, -168646.34, -168445.25, -168498.64, -168390.44, -122944.20, 187500.00, -168407.17, -168705.13, -168522.89, -168549.78, -168198.56, -169221.83, -168266.08, 187500.00, 0.00, 0.00, 0.00
42, -168417.84, -168184.48, -168646.34, -168445.25, -168498.64, -168390.44, -122944.20, 187500.00, -168754.50, -168560.13, -169022.19, -168393.72, -168197.75, -168945.47, -168294.84, 187500.00, 0.00, 0.00, 0.00
43, -168403.52, -168050.44, -168565.98, -168401.61, -168603.05, -168619.55, -123055.78, 187500.00, -168754.50, -168560.13, -169022.19, -168393.72, -168197.75, -168945.47, -168294.84, 187500.00, -0.00, -0.08, 0.97
44, -168403.52, -168050.44, -168565.98, -168401.61, -168603.05, -168619.55, -123055.78, 187500.00, -169009.47, -168742.39, -169512.98, -168487.89, -168203.48, -169042.48, -168272.55, 187500.00, 0.00, 0.00, 0.00
45, -168412.19, -168057.89, -168449.13, -168394.03, -168274.91, -168942.13, -123037.72, 187500.00, -169009.47, -168742.39, -169512.98, -168487.89, -168203.48, -169042.48, -168272.55, 187500.00, 0.00, 0.00, 0.00
46, -168412.19, -168057.89, -168449.13, -168394.03, -168274.91, -168942.13, -123037.72, 187500.00, -168856.88, -168674.14, -169439.78, -168404.08, -168232.88, -168843.97, -168288.48, 187500.00, 0.00, 0.00, 0.00
47, -168401.84, -167943.88, -168387.05, -168390.55, -168740.64, -169221.09, -123161.17, 187500.00, -168856.88, -168674.14, -169439.78, -168404.08, -168232.88, -168843.97, -168288.48, 187500.00, 0.00, 0.00, 0.00
48, -168401.84, -167943.88, -168387.05, -168390.55, -168740.64, -169221.09, -123161.17, 187500.00, -168728.84, -168646.52, -169376.64, -168497.72, -168205.59, -168885.22, -168299.98, 187500.00, 0.00, 0.00, 0.00
49, -168421.94, -168347.17, -168287.80, -168371.23, -168603.77, -170026.66, -123152.66, 187500.00, -168728.84, -168646.52, -169376.64, -168497.72, -168205.59, -168885.22, -168299.98, 187500.00, 0.00, 0.00, 0.00
50, -168421.94, -168347.17, -168287.80, -168371.23, -168603.77, -170026.66, -123152.66, 187500.00, -168600.97, -168568.16, -169318.58, -168432.33, -168192.83, -168771.38, -168286.70, 187500.00, 0.00, 0.00, 0.00
