%OpenBCI Raw EEG Data
%
%Sample Rate = 250.0 Hz
%First Column = SampleIndex
%Other Columns = EEG data in microvolts followed by Accel Data (in G) interleaved with Aux Data
0, 0.00, 0.00, 0.00, 0.00, 0.00, 0.00, 0.00, 0.00, 87949.40, 87882.25, -93750.01, -93750.01, -93750.01, -93750.01, -93750.01, -93750.01, 0.01, -0.20, 0.95
1, -74725.19, -89908.05, -93750.01, -93750.01, -93750.01, -93750.01, -93750.01, -93750.01, 87949.40, 87882.25, -93750.01, -93750.01, -93750.01, -93750.01, -93750.01, -93750.01, 0.00, 0.00, 0.00
2, -74725.19, -89908.05, -93750.01, -93750.01, -93750.01, -93750.01, -93750.01, -93750.01, -141626.53, -165911.94, -187500.02, -187500.02, -187500.02, -187500.02, -187500.02, -187500.02, 0.00, 0.00, 0.00
3, -149442.28, -179809.20, -187500.02, -187500.02, -187500.02, -187500.02, -187500.02, -187500.02, -141626.53, -165911.94, -187500.02, -187500.02, -187500.02, -187500.02, -187500.02, -187500.02, 0.00, 0.00, 0.00
4, -149442.28, -179809.20, -187500.02, -187500.02, -187500.02, -187500.02, -187500.02, -187500.02, -141621.67, -165909.11, -187500.02, -187500.02, -187500.02, -187500.02, -187500.02, -187500.02, 0.00, 0.00, 0.00
5, -149443.02, -179812.09, -187500.02, -187500.02, -187500.02, -187500.02, -187500.02, -187500.02, -141621.67, -165909.11, -187500.02, -187500.02, -187500.02, -187500.02, -187500.02, -187500.02, 0.00, 0.00, 0.00
6, -149443.02, -179812.09, -187500.02, -187500.02, -187500.02, -187500.02, -187500.02, -187500.02, -141614.44, -165904.08, -187500.02, -187500.02, -187500.02, -187500.02, -187500.02, -187500.02, 0.00, 0.00, 0.00
7, -149427.52, -179798.45, -187500.02, -187500.02, -187500.02, -187500.02, -187500.02, -187500.02, -141614.44, -165904.08, -187500.02, -187500.02, -187500.02, -187500.02, -187500.02, -187500.02, 0.00, 0.00, 0.00
8, -149427.52, -179798.45, -187500.02, -187500.02, -187500.02, -187500.02, -187500.02, -187500.02, -141605.27, -165896.98, -187500.02, -187500.02, -187500.02, -187500.02, -187500.02, -187500.02, 0.01, -0.21, 0.95
9, -149430.81, -179803.69, -187500.02, -187500.02, -187500.02, -187500.02, -187500.02, -187500.02, -141605.27, -165896.98, -187500.02, -187500.02, -187500.02, -187500.02, -187500.02, -187500.02, 0.00, 0.00, 0.00
10, -149430.81, -179803.69, -187500.02, -187500.02, -187500.02, -187500.02, -187500.02, -187500.02, -141606.05, -165899.78, -187500.02, -187500.02, -187500.02, -187500.02, -187500.02, -187500.02, 0.00, 0.00, 0.00
11, -149422.48, -179797.42, -187500.02, -187500.02, -187500.02, -187500.02, -187500.02, -187500.02, -141606.05, -165899.78, -187500.02, -187500.02, -187500.02, -187500.02, -187500.02, -187500.02, 0.00, 0.00, 0.00
12, -149422.48, -179797.42, -187500.02, -187500.02, -187500.02, -187500.02, -187500.02, -187500.02, -141595.88, -165892.14, -187500.02, -187500.02, -187500.02, -187500.02, -187500.02, -187500.02, 0.00, 0.00, 0.00
13, -149418.70, -179795.75, -187500.02, -187500.02, -187500.02, -187500.02, -187500.02, -187500.02, -141595.88, -165892.14, -187500.02, -187500.02, -187500.02, -187500.02, -187500.02, -187500.02, 0.00, 0.00, 0.00
14, -149418.70, -179795.75, -187500.02, -187500.02, -187500.02, -187500.02, -187500.02, -187500.02, -141591.48, -165889.23, -187500.02, -187500.02, -187500.02, -187500.02, -187500.02, -187500.02, 0.00, 0.00, 0.00
15, -149410.25, -179789.31, -187500.02, -187500.02, -187500.02, -187500.02, -187500.02, -187500.02, -141591.48, -165889.23, -187500.02, -187500.02, -187500.02, -187500.02, -187500.02, -187500.02, 0.00, 0.00, 0.00
16, -149410.25, -179789.31, -187500.02, -187500.02, -187500.02, -187500.02, -187500.02, -187500.02, -141585.20, -165885.72, -187500.02, -187500.02, -187500.02, -187500.02, -187500.02, -187500.02, 0.00, 0.00, 0.00
17, -149411.89, -179792.91, -187500.02, -187500.02, -187500.02, -187500.02, -187500.02, -187500.02, -141585.20, -165885.72, -187500.02, -187500.02, -187500.02, -187500.02, -187500.02, -187500.02, 0.00, 0.00, 0.00
18, -149411.89, -179792.91, -187500.02, -187500.02, -187500.02, -187500.02, -187500.02, -187500.02, -141584.27, -165886.17, -187500.02, -187500.02, -187500.02, -187500.02, -187500.02, -187500.02, 0.01, -0.21, 0.97
19, -149401.06, -179784.27, -187500.02, -187500.02, -187500.02, -187500.02, -187500.02, -187500.02, -141584.27, -165886.17, -187500.02, -187500.02, -187500.02, -187500.02, -187500.02, -187500.02, 0.00, 0.00, 0.00
20, -149401.06, -179784.27, -187500.02, -187500.02, -187500.02, -187500.02, -187500.02, -187500.02, -141571.16, -165876.06, -187500.02, -187500.02, -187500.02, -187500.02, -187500.02, -187500.02, 0.00, 0.00, 0.00
21, -149398.25, -179783.25, -187500.02, -187500.02, -187500.02, -187500.02, -187500.02, -187500.02, -141571.16, -165876.06, -187500.02, -187500.02, -187500.02, -187500.02, -187500.02, -187500.02, 0.00, 0.00, 0.00
22, -149398.25, -179783.25, -187500.02, -187500.02, -187500.02, -187500.02, -187500.02, -187500.02, -141572.50, -165878.50, -187500.02, -187500.02, -187500.02, -187500.02, -187500.02, -187500.02, 0.00, 0.00, 0.00
23, -149392.19, -179779.39, -187500.02, -187500.02, -187500.02, -187500.02, -187500.02, -187500.02, -141572.50, -165878.50, -187500.02, -187500.02, -187500.02, -187500.02, -187500.02, -187500.02, 0.00, 0.00, 0.00
24, -149392.19, -179779.39, -187500.02, -187500.02, -187500.02, -187500.02, -187500.02, -187500.02, -141559.92, -165869.16, -187500.02, -187500.02, -187500.02, -187500.02, -187500.02, -187500.02, 0.00, 0.00, 0.00
25, -149386.89, -179775.92, -187500.02, -187500.02, -187500.02, -187500.02, -187500.02, -187500.02, -141559.92, -165869.16, -187500.02, -187500.02, -187500.02, -187500.02, -187500.02, -187500.02, 0.00, 0.00, 0.00
26, -149386.89, -179775.92, -187500.02, -187500.02, -187500.02, -187500.02, -187500.02, -187500.02, -141559.88, -165870.19, -187500.02, -187500.02, -187500.02, -187500.02, -187500.02, -187500.02, 0.00, 0.00, 0.00
27, -149381.84, -179772.97, -187500.02, -187500.02, -187500.02, -187500.02, -187500.02, -187500.02, -141559.88, -165870.19, -187500.02, -187500.02, -187500.02, -187500.02, -187500.02, -187500.02, 0.00, 0.00, 0.00
28, -149381.84, -179772.97, -187500.02, -187500.02, -187500.02, -187500.02, -187500.02, -187500.02, -141549.30, -165862.98, -187500.02, -187500.02, -187500.02, -187500.02, -187500.02, -187500.02, 0.01, -0.20, 0.96
29, -149377.66, -179770.53, -187500.02, -187500.02, -187500.02, -187500.02, -187500.02, -187500.02, -141549.30, -165862.98, -187500.02, -187500.02, -187500.02, -187500.02, -187500.02, -187500.02, 0.00, 0.00, 0.00
30, -149377.66, -179770.53, -187500.02, -187500.02, -187500.02, -187500.02, -187500.02, -187500.02, -141548.83, -165863.42, -187500.02, -187500.02, -187500.02, -187500.02, -187500.02, -187500.02, 0.00, 0.00, 0.00
31, -149372.08, -179767.14, -187500.02, -187500.02, -187500.02, -187500.02, -187500.02, -187500.02, -141548.83, -165863.42, -187500.02, -187500.02, -187500.02, -187500.02, -187500.02, -187500.02, 0.00, 0.00, 0.00
32, -149372.08, -179767.14, -187500.02, -187500.02, -187500.02, -187500.02, -187500.02, -187500.02, -141536.42, -165854.31, -187500.02, -187500.02, -187500.02, -187500.02, -187500.02, -187500.02, 0.00, 0.00, 0.00
33, -149363.97, -179760.72, -187500.02, -187500.02, -187500.02, -187500.02, -187500.02, -187500.02, -141536.42, -165854.31, -187500.02, -187500.02, -187500.02, -187500.02, -187500.02, -187500.02, 0.00, 0.00, 0.00
34, -149363.97, -179760.72, -187500.02, -187500.02, -187500.02, -187500.02, -187500.02, -187500.02, -141536.42, -165855.38, -187500.02, -187500.02, -187500.02, -187500.02, -187500.02, -187500.02, 0.00, 0.00, 0.00
35, -149363.58, -179762.72, -187500.02, -187500.02, -187500.02, -187500.02, -187500.02, -187500.02, -141536.42, -165855.38, -187500.02, -187500.02, -187500.02, -187500.02, -187500.02, -187500.02, 0.00, 0.00, 0.00
36, -149363.58, -179762.72, -187500.02, -187500.02, -187500.02, -187500.02, -187500.02, -187500.02, -141526.92, -165849.22, -187500.02, -187500.02, -187500.02, -187500.02, -187500.02, -187500.02, 0.00, 0.00, 0.00
37, -149355.27, -179756.20, -187500.02, -187500.02, -187500.02, -187500.02, -187500.02, -187500.02, -141526.92, -165849.22, -187500.02, -187500.02, -187500.02, -187500.02, -187500.02, -187500.02, 0.00, 0.00, 0.00
38, -149355.27, -179756.20, -187500.02, -187500.02, -187500.02, -187500.02, -187500.02, -187500.02, -141526.06, -165849.47, -187500.02, -187500.02, -187500.02, -187500.02, -187500.02, -187500.02, 0.00, -0.20, 0.96
39, -149353.61, -179756.83, -187500.02, -187500.02, -187500.02, -187500.02, -187500.02, -187500.02, -141526.06, -165849.47, -187500.02, -187500.02, -187500.02, -187500.02, -187500.02, -187500.02, 0.00, 0.00, 0.00
40, -149353.61, -179756.83, -187500.02, -187500.02, -187500.02, -187500.02, -187500.02, -187500.02, -141516.38, -165842.94, -187500.02, -187500.02, -187500.02, -187500.02, -187500.02, -187500.02, 0.00, 0.00, 0.00
41, -149346.23, -179751.19, -187500.02, -187500.02, -187500.02, -187500.02, -187500.02, -187500.02, -141516.38, -165842.94, -187500.02, -187500.02, -187500.02, -187500.02, -187500.02, -187500.02, 0.00, 0.00, 0.00
42, -149346.23, -179751.19, -187500.02, -187500.02, -187500.02, -187500.02, -187500.02, -187500.02, -141514.86, -165842.86, -187500.02, -187500.02, -187500.02, -187500.02, -187500.02, -187500.02, 0.00, 0.00, 0.00
43, -149343.98, -179751.22, -187500.02, -187500.02, -187500.02, -187500.02, -187500.02, -187500.02, -141514.86, -165842.86, -187500.02, -187500.02, -187500.02, -187500.02, -187500.02, -187500.02, 0.00, 0.00, 0.00
44, -149343.98, -179751.22, -187500.02, -187500.02, -187500.02, -187500.02, -187500.02, -187500.02, -141504.52, -165835.45, -187500.02, -187500.02, -187500.02, -187500.02, -187500.02, -187500.02, 0.00, 0.00, 0.00
45, -149333.55, -179742.53, -187500.02, -187500.02, -187500.02, -187500.02, -187500.02, -187500.02, -141504.52, -165835.45, -187500.02, -187500.02, -187500.02, -187500.02, -187500.02, -187500.02, 0.00, 0.00, 0.00
46, -149333.55, -179742.53, -187500.02, -187500.02, -187500.02, -187500.02, -187500.02, -187500.02, -141502.05, -165834.45, -187500.02, -187500.02, -187500.02, -187500.02, -187500.02, -187500.02, 0.00, 0.00, 0.00
47, -149334.25, -179745.50, -187500.02, -187500.02, -187500.02, -187500.02, -187500.02, -187500.02, -141502.05, -165834.45, -187500.02, -187500.02, -187500.02, -187500.02, -187500.02, -187500.02, 0.01, -0.20, 0.96
48, -149334.25, -179745.50, -187500.02, -187500.02, -187500.02, -187500.02, -187500.02, -187500.02, -141493.31, -165828.34, -187500.02, -187500.02, -187500.02, -187500.02, -187500.02, -187500.02, 0.00, 0.00, 0.00
49, -149321.11, -179734.33, -187500.02, -187500.02, -187500.02, -187500.02, -187500.02, -187500.02, -141493.31, -165828.34, -187500.02, -187500.02, -187500.02, -187500.02, -187500.02, -187500.02, 0.00, 0.00, 0.00
50, -149321.11, -179734.33, -187500.02, -187500.02, -187500.02, -187500.02, -187500.02, -187500.02, -141487.63, -165824.48, -187500.02, -187500.02, -187500.02, -187500.02, -187500.02, -187500.02, 0.00, 0.00, 0.00
51, -149322.91, -179738.13, -187500.02, -187500.02, -187500.02, -187500.02, -187500.02, -187500.02, -141487.63, -165824.48, -187500.02, -187500.02, -187500.02, -187500.02, -187500.02, -187500.02, 0.00, 0.00, 0.00
52, -149322.91, -179738.13, -187500.02, -187500.02, -187500.02, -187500.02, -187500.02, -187500.02, -141484.17, -165823.58, -187500.02, -187500.02, -187500.02, -187500.02, -187500.02, -187500.02, 0.00, 0.00, 0.00
53, -149312.69, -179729.77, -187500.02, -187500.02, -187500.02, -187500.02, -187500.02, -187500.02, -141484.17, -165823.58, -187500.02, -187500.02, -187500.02, -187500.02, -187500.02, -187500.02, 0.00, 0.00, 0.00
54, -149312.69, -179729.77, -187500.02, -187500.02, -187500.02, -187500.02, -187500.02, -187500.02, -141475.19, -165816.48, -187500.02, -187500.02, -187500.02, -187500.02, -187500.02, -187500.02, 0.00, 0.00, 0.00
55, -149311.97, -179731.20, -187500.02, -187500.02, -187500.02, -187500.02, -187500.02, -187500.02, -141475.19, -165816.48, -187500.02, -187500.02, -187500.02, -187500.02, -187500.02, -187500.02, 0.00, 0.00, 0.00
56, -149311.97, -179731.20, -187500.02, -187500.02, -187500.02, -187500.02, -187500.02, -187500.02, -141472.77, -165816.28, -187500.02, -187500.02, -187500.02, -187500.02, -187500.02, -187500.02, 0.00, 0.00, 0.00
57, -149301.69, -179722.92, -187500.02, -187500.02, -187500.02, -187500.02, -187500.02, -187500.02, -141472.77, -165816.28, -187500.02, -187500.02, -187500.02, -187500.02, -187500.02, -187500.02, 0.00, -0.20, 0.96
58, -149301.69, -179722.92, -187500.02, -187500.02, -187500.02, -187500.02, -187500.02, -187500.02, -141461.55, -165807.45, -187500.02, -187500.02, -187500.02, -187500.02, -187500.02, -187500.02, 0.00, 0.00, 0.00
59, -149299.34, -179722.66, -187500.02, -187500.02, -187500.02, -187500.02, -187500.02, -187500.02, -141461.55, -165807.45, -187500.02, -187500.02, -187500.02, -187500.02, -187500.02, -187500.02, 0.00, 0.00, 0.00
60, -149299.34, -179722.66, -187500.02, -187500.02, -187500.02, -187500.02, -187500.02, -187500.02, -141460.36, -165808.08, -187500.02, -187500.02, -187500.02, -187500.02, -187500.02, -187500.02, 0.00, 0.00, 0.00
61, -149291.97, -179717.23, -187500.02, -187500.02, -187500.02, -187500.02, -187500.02, -187500.02, -141460.36, -165808.08, -187500.02, -187500.02, -187500.02, -187500.02, -187500.02, -187500.02, 0.00, 0.00, 0.00
62, -149291.97, -179717.23, -187500.02, -187500.02, -187500.02, -187500.02, -187500.02, -187500.02, -141453.09, -165803.52, -187500.02, -187500.02, -187500.02, -187500.02, -187500.02, -187500.02, 0.00, 0.00, 0.00
63, -149295.66, -179722.86, -187500.02, -187500.02, -187500.02, -187500.02, -187500.02, -187500.02, -141453.09, -165803.52, -187500.02, -187500.02, -187500.02, -187500.02, -187500.02, -187500.02, 0.00, 0.00, 0.00
64, -149295.66, -179722.86, -187500.02, -187500.02, -187500.02, -187500.02, -187500.02, -187500.02, -141456.81, -165808.75, -187500.02, -187500.02, -187500.02, -187500.02, -187500.02, -187500.02, 0.00, 0.00, 0.00
65, -149287.39, -179716.63, -187500.02, -187500.02, -187500.02, -187500.02, -187500.02, -187500.02, -141456.81, -165808.75, -187500.02, -187500.02, -187500.02, -187500.02, -187500.02, -187500.02, 0.00, 0.00, 0.00
66, -149287.39, -179716.63, -187500.02, -187500.02, -187500.02, -187500.02, -187500.02, -187500.02, -141443.84, -165798.64, -187500.02, -187500.02, -187500.02, -187500.02, -187500.02, -187500.02, 0.00, 0.00, 0.00
67, -149283.94, -179715.06, -187500.02, -187500.02, -187500.02, -187500.02, -187500.02, -187500.02, -141443.84, -165798.64, -187500.02, -187500.02, -187500.02, -187500.02, -187500.02, -187500.02, 0.00, -0.21, 0.95
68, -149283.94, -179715.06, -187500.02, -187500.02, -187500.02, -187500.02, -187500.02, -187500.02, -141443.95, -165800.03, -187500.02, -187500.02, -187500.02, -187500.02, -187500.02, -187500.02, 0.00, 0.00, 0.00
69, -149277.97, -179711.22, -187500.02, -187500.02, -187500.02, -187500.02, -187500.02, -187500.02, -141443.95, -165800.03, -187500.02, -187500.02, -187500.02, -187500.02, -187500.02, -187500.02, 0.00, 0.00, 0.00
70, -149277.97, -179711.22, -187500.02, -187500.02, -187500.02, -187500.02, -187500.02, -187500.02, -141433.11, -165792.34, -187500.02, -187500.02, -187500.02, -187500.02, -187500.02, -187500.02, 0.00, 0.00, 0.00
71, -149274.25, -179709.42, -187500.02, -187500.02, -187500.02, -187500.02, -187500.02, -187500.02, -141433.11, -165792.34, -187500.02, -187500.02, -187500.02, -187500.02, -187500.02, -187500.02, 0.00, 0.00, 0.00
72, -149274.25, -179709.42, -187500.02, -187500.02, -187500.02, -187500.02, -187500.02, -187500.02, -141433.45, -165793.81, -187500.02, -187500.02, -187500.02, -187500.02, -187500.02, -187500.02, 0.00, 0.00, 0.00
73, -149268.39, -179705.72, -187500.02, -187500.02, -187500.02, -187500.02, -187500.02, -187500.02, -141433.45, -165793.81, -187500.02, -187500.02, -187500.02, -187500.02, -187500.02, -187500.02, 0.00, 0.00, 0.00
74, -149268.39, -179705.72, -187500.02, -187500.02, -187500.02, -187500.02, -187500.02, -187500.02, -141420.89, -165784.53, -187500.02, -187500.02, -187500.02, -187500.02, -187500.02, -187500.02, 0.00, 0.00, 0.00
75, -149262.31, -179701.56, -187500.02, -187500.02, -187500.02, -187500.02, -187500.02, -187500.02, -141420.89, -165784.53, -187500.02, -187500.02, -187500.02, -187500.02, -187500.02, -187500.02, 0.00, 0.00, 0.00
76, -149262.31, -179701.56, -187500.02, -187500.02, -187500.02, -187500.02, -187500.02, -187500.02, -141421.77, -165786.50, -187500.02, -187500.02, -187500.02, -187500.02, -187500.02, -187500.02, 0.00, 0.00, 0.00
77, -149259.41, -179700.84, -187500.02, -187500.02, -187500.02, -187500.02, -187500.02, -187500.02, -141421.77, -165786.50, -187500.02, -187500.02, -187500.02, -187500.02, -187500.02, -187500.02, 0.00, -0.20, 0.96
78, -149259.41, -179700.84, -187500.02, -187500.02, -187500.02, -187500.02, -187500.02, -187500.02, -141412.08, -165780.06, -187500.02, -187500.02, -187500.02, -187500.02, -187500.02, -187500.02, 0.00, 0.00, 0.00
79, -149255.00, -179698.19, -187500.02, -187500.02, -187500.02, -187500.02, -187500.02, -187500.02, -141412.08, -165780.06, -187500.02, -187500.02, -187500.02, -187500.02, -187500.02, -187500.02, 0.00, 0.00, 0.00
80, -149255.00, -179698.19, -187500.02, -187500.02, -187500.02, -187500.02, -187500.02, -187500.02, -141412.67, -165781.63, -187500.02, -187500.02, -187500.02, -187500.02, -187500.02, -187500.02, 0.00, 0.00, 0.00
81, -149250.80, -179696.17, -187500.02, -187500.02, -187500.02, -187500.02, -187500.02, -187500.02, -141412.67, -165781.63, -187500.02, -187500.02, -187500.02, -187500.02, -187500.02, -187500.02, 0.00, 0.00, 0.00
82, -149250.80, -179696.17, -187500.02, -187500.02, -187500.02, -187500.02, -187500.02, -187500.02, -141399.14, -165771.50, -187500.02, -187500.02, -187500.02, -187500.02, -187500.02, -187500.02, 0.00, 0.00, 0.00
83, -149240.67, -179687.91, -187500.02, -187500.02, -187500.02, -187500.02, -187500.02, -187500.02, -141399.14, -165771.50, -187500.02, -187500.02, -187500.02, -187500.02, -187500.02, -187500.02, 0.00, 0.00, 0.00
84, -149240.67, -179687.91, -187500.02, -187500.02, -187500.02, -187500.02, -187500.02, -187500.02, -141398.11, -165771.42, -187500.02, -187500.02, -187500.02, -187500.02, -187500.02, -187500.02, 0.00, 0.00, 0.00
85, -149239.06, -179688.50, -187500.02, -187500.02, -187500.02, -187500.02, -187500.02, -187500.02, -141398.11, -165771.42, -187500.02, -187500.02, -187500.02, -187500.02, -187500.02, -187500.02, 0.00, 0.00, 0.00
86, -149239.06, -179688.50, -187500.02, -187500.02, -187500.02, -187500.02, -187500.02, -187500.02, -141385.53, -165762.05, -187500.02, -187500.02, -187500.02, -187500.02, -187500.02, -187500.02, 0.00, 0.00, 0.00
87, -149227.66, -179678.83, -187500.02, -187500.02, -187500.02, -187500.02, -187500.02, -187500.02, -141385.53, -165762.05, -187500.02, -187500.02, -187500.02, -187500.02, -187500.02, -187500.02, 0.00, -0.20, 0.96
88, -149227.66, -179678.83, -187500.02, -187500.02, -187500.02, -187500.02, -187500.02, -187500.02, -141386.38, -165764.08, -187500.02, -187500.02, -187500.02, -187500.02, -187500.02, -187500.02, 0.00, 0.00, 0.00
89, -149230.30, -179683.72, -187500.02, -187500.02, -187500.02, -187500.02, -187500.02, -187500.02, -141386.38, -165764.08, -187500.02, -187500.02, -187500.02, -187500.02, -187500.02, -187500.02, 0.00, 0.00, 0.00
90, -149230.30, -179683.72, -187500.02, -187500.02, -187500.02, -187500.02, -187500.02, -187500.02, -141376.56, -165757.42, -187500.02, -187500.02, -187500.02, -187500.02, -187500.02, -187500.02, 0.00, 0.00, 0.00
91, -149219.13, -179674.11, -187500.02, -187500.02, -187500.02, -187500.02, -187500.02, -187500.02, -141376.56, -165757.42, -187500.02, -187500.02, -187500.02, -187500.02, -187500.02, -187500.02, 0.00, 0.00, 0.00
92, -149219.13, -179674.11, -187500.02, -187500.02, -187500.02, -187500.02, -187500.02, -187500.02, -141374.28, -165756.47, -187500.02, -187500.02, -187500.02, -187500.02, -187500.02, -187500.02, 0.00, 0.00, 0.00
93, -149221.84, -179678.94, -187500.02, -187500.02, -187500.02, -187500.02, -187500.02, -187500.02, -141374.28, -165756.47, -187500.02, -187500.02, -187500.02, -187500.02, -187500.02, -187500.02, 0.00, 0.00, 0.00
94, -149221.84, -179678.94, -187500.02, -187500.02, -187500.02, -187500.02, -187500.02, -187500.02, -141369.69, -165754.70, -187500.02, -187500.02, -187500.02, -187500.02, -187500.02, -187500.02, 0.00, 0.00, 0.00
95, -149213.38, -179672.45, -187500.02, -187500.02, -187500.02, -187500.02, -187500.02, -187500.02, -141369.69, -165754.70, -187500.02, -187500.02, -187500.02, -187500.02, -187500.02, -187500.02, 0.00, 0.00, 0.00
96, -149213.38, -179672.45, -187500.02, -187500.02, -187500.02, -187500.02, -187500.02, -187500.02, -141366.70, -165753.42, -187500.02, -187500.02, -187500.02, -187500.02, -187500.02, -187500.02, 0.00, 0.00, 0.00
97, -149213.05, -179674.47, -187500.02, -187500.02, -187500.02, -187500.02, -187500.02, -187500.02, -141366.70, -165753.42, -187500.02, -187500.02, -187500.02, -187500.02, -187500.02, -187500.02, 0.00, -0.20, 0.95
98, -149213.05, -179674.47, -187500.02, -187500.02, -187500.02, -187500.02, -187500.02, -187500.02, -141359.11, -165748.38, -187500.02, -187500.02, -187500.02, -187500.02, -187500.02, -187500.02, 0.00, 0.00, 0.00
99, -149201.88, -179665.13, -187500.02, -187500.02, -187500.02, -187500.02, -187500.02, -187500.02, -141359.11, -165748.38, -187500.02, -187500.02, -187500.02, -187500.02, -187500.02, -187500.02, 0.00, 0.00, 0.00
100, -149201.88, -179665.13, -187500.02, -187500.02, -187500.02, -187500.02, -187500.02, -187500.02, -141352.30, -165743.55, -187500.02, -187500.02, -187500.02, -187500.02, -187500.02, -187500.02, 0.00, 0.00, 0.00
101, -149201.11, -179666.48, -187500.02, -187500.02, -187500.02, -187500.02, -187500.02, -187500.02, -141352.30, -165743.55, -187500.02, -187500.02, -187500.02, -187500.02, -187500.02, -187500.02, 0.00, 0.00, 0.00
102, -149201.11, -179666.48, -187500.02, -187500.02, -187500.02, -187500.02, -187500.02, -187500.02, -141347.23, -165740.75, -187500.02, -187500.02, -187500.02, -187500.02, -187500.02, -187500.02, 0.00, 0.00, 0.00
103, -149191.81, -179658.91, -187500.02, -187500.02, -187500.02, -187500.02, -187500.02, -187500.02, -141347.23, -165740.75, -187500.02, -187500.02, -187500.02, -187500.02, -187500.02, -187500.02, 0.00, 0.00, 0.00
104, -149191.81, -179658.91, -187500.02, -187500.02, -187500.02, -187500.02, -187500.02, -187500.02, -141340.80, -165736.39, -187500.02, -187500.02, -187500.02, -187500.02, -187500.02, -187500.02, 0.00, 0.00, 0.00
105, -149192.45, -179661.70, -187500.02, -187500.02, -187500.02, -187500.02, -187500.02, -187500.02, -141340.80, -165736.39, -187500.02, -187500.02, -187500.02, -187500.02, -187500.02, -187500.02, 0.00, 0.00, 0.00
106, -149192.45, -179661.70, -187500.02, -187500.02, -187500.02, -187500.02, -187500.02, -187500.02, -141339.03, -165736.64, -187500.02, -187500.02, -187500.02, -187500.02, -187500.02, -187500.02, 0.00, 0.00, 0.00
107, -149182.80, -179653.92, -187500.02, -187500.02, -187500.02, -187500.02, -187500.02, -187500.02, -141339.03, -165736.64, -187500.02, -187500.02, -187500.02, -187500.02, -187500.02, -187500.02, -0.00, -0.20, 0.95
108, -149182.80, -179653.92, -187500.02, -187500.02, -187500.02, -187500.02, -187500.02, -187500.02, -141329.69, -165729.78, -187500.02, -187500.02, -187500.02, -187500.02, -187500.02, -187500.02, 0.00, 0.00, 0.00
109, -149183.16, -179656.44, -187500.02, -187500.02, -187500.02, -187500.02, -187500.02, -187500.02, -141329.69, -165729.78, -187500.02, -187500.02, -187500.02, -187500.02, -187500.02, -187500.02, 0.00, 0.00, 0.00
110, -149183.16, -179656.44, -187500.02, -187500.02, -187500.02, -187500.02, -187500.02, -187500.02, -141328.33, -165730.25, -187500.02, -187500.02, -187500.02, -187500.02, -187500.02, -187500.02, 0.00, 0.00, 0.00
111, -149173.50, -179648.66, -187500.02, -187500.02, -187500.02, -187500.02, -187500.02, -187500.02, -141328.33, -165730.25, -187500.02, -187500.02, -187500.02, -187500.02, -187500.02, -187500.02, 0.00, 0.00, 0.00
112, -149173.50, -179648.66, -187500.02, -187500.02, -187500.02, -187500.02, -187500.02, -187500.02, -141319.45, -165724.17, -187500.02, -187500.02, -187500.02, -187500.02, -187500.02, -187500.02, 0.00, 0.00, 0.00
113, -149174.75, -179651.84, -187500.02, -187500.02, -187500.02, -187500.02, -187500.02, -187500.02, -141319.45, -165724.17, -187500.02, -187500.02, -187500.02, -187500.02, -187500.02, -187500.02, 0.00, 0.00, 0.00
114, -149174.75, -179651.84, -187500.02, -187500.02, -187500.02, -187500.02, -187500.02, -187500.02, -141320.20, -165726.28, -187500.02, -187500.02, -187500.02, -187500.02, -187500.02, -187500.02, 0.00, 0.00, 0.00
115, -149166.63, -179645.86, -187500.02, -187500.02, -187500.02, -187500.02, -187500.02, -187500.02, -141320.20, -165726.28, -187500.02, -187500.02, -187500.02, -187500.02, -187500.02, -187500.02, 0.00, 0.00, 0.00
116, -149166.63, -179645.86, -187500.02, -187500.02, -187500.02, -187500.02, -187500.02, -187500.02, -141309.36, -165718.36, -187500.02, -187500.02, -187500.02, -187500.02, -187500.02, -187500.02, 0.00, 0.00, 0.00
117, -149163.88, -179644.92, -187500.02, -187500.02, -187500.02, -187500.02, -187500.02, -187500.02, -141309.36, -165718.36, -187500.02, -187500.02, -187500.02, -187500.02, -187500.02, -187500.02, 0.00, -0.21, 0.96
118, -149163.88, -179644.92, -187500.02, -187500.02, -187500.02, -187500.02, -187500.02, -187500.02, -141307.25, -165717.34, -187500.02, -187500.02, -187500.02, -187500.02, -187500.02, -187500.02, 0.00, 0.00, 0.00
119, -149152.66, -179635.89, -187500.02, -187500.02, -187500.02, -187500.02, -187500.02, -187500.02, -141307.25, -165717.34, -187500.02, -187500.02, -187500.02, -187500.02, -187500.02, -187500.02, 0.00, 0.00, 0.00
120, -149152.66, -179635.89, -187500.02, -187500.02, -187500.02, -187500.02, -187500.02, -187500.02, -141292.95, -165706.42, -187500.02, -187500.02, -187500.02, -187500.02, -187500.02, -187500.02, 0.00, 0.00, 0.00
121, -149147.73, -179632.78, -187500.02, -187500.02, -187500.02, -187500.02, -187500.02, -187500.02, -141292.95, -165706.42, -187500.02, -187500.02, -187500.02, -187500.02, -187500.02, -187500.02, 0.00, 0.00, 0.00
122, -149147.73, -179632.78, -187500.02, -187500.02, -187500.02, -187500.02, -187500.02, -187500.02, -141292.44, -165707.02, -187500.02, -187500.02, -187500.02, -187500.02, -187500.02, -187500.02, 0.00, 0.00, 0.00
123, -149142.39, -179629.56, -187500.02, -187500.02, -187500.02, -187500.02, -187500.02, -187500.02, -141292.44, -165707.02, -187500.02, -187500.02, -187500.02, -187500.02, -187500.02, -187500.02, 0.00, 0.00, 0.00
124, -149142.39, -179629.56, -187500.02, -187500.02, -187500.02, -187500.02, -187500.02, -187500.02, -141281.11, -165699.05, -187500.02, -187500.02, -187500.02, -187500.02, -187500.02, -187500.02, 0.00, 0.00, 0.00
125, -149137.97, -179626.95, -187500.02, -187500.02, -187500.02, -187500.02, -187500.02, -187500.02, -141281.11, -165699.05, -187500.02, -187500.02, -187500.02, -187500.02, -187500.02, -187500.02, 0.00, 0.00, 0.00
126, -149137.97, -179626.95, -187500.02, -187500.02, -187500.02, -187500.02, -187500.02, -187500.02, -141283.66, -165702.48, -187500.02, -187500.02, -187500.02, -187500.02, -187500.02, -187500.02, 0.00, 0.00, 0.00
127, -149136.09, -179627.33, -187500.02, -187500.02, -187500.02, -187500.02, -187500.02, -187500.02, -141283.66, -165702.48, -187500.02, -187500.02, -187500.02, -187500.02, -187500.02, -187500.02, 0.00, -0.20, 0.96
128, -149136.09, -179627.33, -187500.02, -187500.02, -187500.02, -187500.02, -187500.02, -187500.02, -141274.73, -165696.94, -187500.02, -187500.02, -187500.02, -187500.02, -187500.02, -187500.02, 0.00, 0.00, 0.00
129, -149131.91, -179625.00, -187500.02, -187500.02, -187500.02, -187500.02, -187500.02, -187500.02, -141274.73, -165696.94, -187500.02, -187500.02, -187500.02, -187500.02, -187500.02, -187500.02, 0.00, 0.00, 0.00
130, -149131.91, -179625.00, -187500.02, -187500.02, -187500.02, -187500.02, -187500.02, -187500.02, -141273.55, -165696.84, -187500.02, -187500.02, -187500.02, -187500.02, -187500.02, -187500.02, 0.00, 0.00, 0.00
131, -149125.41, -179620.72, -187500.02, -187500.02, -187500.02, -187500.02, -187500.02, -187500.02, -141273.55, -165696.84, -187500.02, -187500.02, -187500.02, -187500.02, -187500.02, -187500.02, 0.00, 0.00, 0.00
132, -149125.41, -179620.72, -187500.02, -187500.02, -187500.02, -187500.02, -187500.02, -187500.02, -141261.67, -165688.25, -187500.02, -187500.02, -187500.02, -187500.02, -187500.02, -187500.02, 0.00, 0.00, 0.00
133, -149119.17, -179616.25, -187500.02, -187500.02, -187500.02, -187500.02, -187500.02, -187500.02, -141261.67, -165688.25, -187500.02, -187500.02, -187500.02, -187500.02, -187500.02, -187500.02, 0.00, 0.00, 0.00
134, -149119.17, -179616.25, -187500.02, -187500.02, -187500.02, -187500.02, -187500.02, -187500.02, -141261.81, -165689.50, -187500.02, -187500.02, -187500.02, -187500.02, -187500.02, -187500.02, 0.00, 0.00, 0.00
135, -149116.42, -179615.75, -187500.02, -187500.02, -187500.02, -187500.02, -187500.02, -187500.02, -141261.81, -165689.50, -187500.02, -187500.02, -187500.02, -187500.02, -187500.02, -187500.02, 0.00, 0.00, 0.00
136, -149116.42, -179615.75, -187500.02, -187500.02, -187500.02, -187500.02, -187500.02, -187500.02, -141250.28, -165681.11, -187500.02, -187500.02, -187500.02, -187500.02, -187500.02, -187500.02, 0.00, 0.00, 0.00
137, -149108.53, -179609.56, -187500.02, -187500.02, -187500.02, -187500.02, -187500.02, -187500.02, -141250.28, -165681.11, -187500.02, -187500.02, -187500.02, -187500.02, -187500.02, -187500.02, 0.00, -0.20, 0.96
138, -149108.53, -179609.56, -187500.02, -187500.02, -187500.02, -187500.02, -187500.02, -187500.02, -141250.92, -165682.97, -187500.02, -187500.02, -187500.02, -187500.02, -187500.02, -187500.02, 0.00, 0.00, 0.00
139, -149108.59, -179611.81, -187500.02, -187500.02, -187500.02, -187500.02, -187500.02, -187500.02, -141250.92, -165682.97, -187500.02, -187500.02, -187500.02, -187500.02, -187500.02, -187500.02, 0.00, 0.00, 0.00
140, -149108.59, -179611.81, -187500.02, -187500.02, -187500.02, -187500.02, -187500.02, -187500.02, -141241.83, -165676.98, -187500.02, -187500.02, -187500.02, -187500.02, -187500.02, -187500.02, 0.00, 0.00, 0.00
141, -149099.55, -179604.55, -187500.02, -187500.02, -187500.02, -187500.02, -187500.02, -187500.02, -141241.83, -165676.98, -187500.02, -187500.02, -187500.02, -187500.02, -187500.02, -187500.02, 0.00, 0.00, 0.00
142, -149099.55, -179604.55, -187500.02, -187500.02, -187500.02, -187500.02, -187500.02, -187500.02, -141239.23, -165675.75, -187500.02, -187500.02, -187500.02, -187500.02, -187500.02, -187500.02, 0.00, 0.00, 0.00
143, -149098.31, -179605.53, -187500.02, -187500.02, -187500.02, -187500.02, -187500.02, -187500.02, -141239.23, -165675.75, -187500.02, -187500.02, -187500.02, -187500.02, -187500.02, -187500.02, 0.00, 0.00, 0.00
144, -149098.31, -179605.53, -187500.02, -187500.02, -187500.02, -187500.02, -187500.02, -187500.02, -141231.48, -165670.88, -187500.02, -187500.02, -187500.02, -187500.02, -187500.02, -187500.02, 0.00, 0.00, 0.00
145, -149087.72, -179596.75, -187500.02, -187500.02, -187500.02, -187500.02, -187500.02, -187500.02, -141231.48, -165670.88, -187500.02, -187500.02, -187500.02, -187500.02, -187500.02, -187500.02, 0.00, 0.00, 0.00
146, -149087.72, -179596.75, -187500.02, -187500.02, -187500.02, -187500.02, -187500.02, -187500.02, -141225.77, -165666.91, -187500.02, -187500.02, -187500.02, -187500.02, -187500.02, -187500.02, 0.00, 0.00, 0.00
147, -149088.83, -179600.00, -187500.02, -187500.02, -187500.02, -187500.02, -187500.02, -187500.02, -141225.77, -165666.91, -187500.02, -187500.02, -187500.02, -187500.02, -187500.02, -187500.02, 0.00, -0.20, 0.96
148, -149088.83, -179600.00, -187500.02, -187500.02, -187500.02, -187500.02, -187500.02, -187500.02, -141220.50, -165664.13, -187500.02, -187500.02, -187500.02, -187500.02, -187500.02, -187500.02, 0.00, 0.00, 0.00
149, -149076.45, -179589.56, -187500.02, -187500.02, -187500.02, -187500.02, -187500.02, -187500.02, -141220.50, -165664.13, -187500.02, -187500.02, -187500.02, -187500.02, -187500.02, -187500.02, 0.00, 0.00, 0.00
150, -149076.45, -179589.56, -187500.02, -187500.02, -187500.02, -187500.02, -187500.02, -187500.02, -141212.22, -165657.75, -187500.02, -187500.02, -187500.02, -187500.02, -187500.02, -187500.02, 0.00, 0.00, 0.00
151, -149075.83, -179590.98, -187500.02, -187500.02, -187500.02, -187500.02, -187500.02, -187500.02, -141212.22, -165657.75, -187500.02, -187500.02, -187500.02, -187500.02, -187500.02, -187500.02, 0.00, 0.00, 0.00
152, -149075.83, -179590.98, -187500.02, -187500.02, -187500.02, -187500.02, -187500.02, -187500.02, -141207.86, -165655.52, -187500.02, -187500.02, -187500.02, -187500.02, -187500.02, -187500.02, 0.00, 0.00, 0.00
153, -149065.23, -179582.41, -187500.02, -187500.02, -187500.02, -187500.02, -187500.02, -187500.02, -141207.86, -165655.52, -187500.02, -187500.02, -187500.02, -187500.02, -187500.02, -187500.02, 0.00, 0.00, 0.00
154, -149065.23, -179582.41, -187500.02, -187500.02, -187500.02, -187500.02, -187500.02, -187500.02, -141201.02, -165651.03, -187500.02, -187500.02, -187500.02, -187500.02, -187500.02, -187500.02, 0.00, 0.00, 0.00
155, -149067.59, -179586.83, -187500.02, -187500.02, -187500.02, -187500.02, -187500.02, -187500.02, -141201.02, -165651.03, -187500.02, -187500.02, -187500.02, -187500.02, -187500.02, -187500.02, 0.00, 0.00, 0.00
156, -149067.59, -179586.83, -187500.02, -187500.02, -187500.02, -187500.02, -187500.02, -187500.02, -141201.91, -165653.83, -187500.02, -187500.02, -187500.02, -187500.02, -187500.02, -187500.02, 0.00, 0.00, 0.00
157, -149061.61, -179582.84, -187500.02, -187500.02, -187500.02, -187500.02, -187500.02, -187500.02, -141201.91, -165653.83, -187500.02, -187500.02, -187500.02, -187500.02, -187500.02, -187500.02, 0.00, -0.20, 0.95
158, -149061.61, -179582.84, -187500.02, -187500.02, -187500.02, -187500.02, -187500.02, -187500.02, -141192.25, -165646.73, -187500.02, -187500.02, -187500.02, -187500.02, -187500.02, -187500.02, 0.00, 0.00, 0.00
159, -149057.36, -179580.53, -187500.02, -187500.02, -187500.02, -187500.02, -187500.02, -187500.02, -141192.25, -165646.73, -187500.02, -187500.02, -187500.02, -187500.02, -187500.02, -187500.02, 0.00, 0.00, 0.00
160, -149057.36, -179580.53, -187500.02, -187500.02, -187500.02, -187500.02, -187500.02, -187500.02, -141188.61, -165644.64, -187500.02, -187500.02, -187500.02, -187500.02, -187500.02, -187500.02, 0.00, 0.00, 0.00
161, -149047.39, -179572.70, -187500.02, -187500.02, -187500.02, -187500.02, -187500.02, -187500.02, -141188.61, -165644.64, -187500.02, -187500.02, -187500.02, -187500.02, -187500.02, -187500.02, 0.00, 0.00, 0.00
162, -149047.39, -179572.70, -187500.02, -187500.02, -187500.02, -187500.02, -187500.02, -187500.02, -141176.98, -165636.02, -187500.02, -187500.02, -187500.02, -187500.02, -187500.02, -187500.02, 0.00, 0.00, 0.00
163, -149043.95, -179571.20, -187500.02, -187500.02, -187500.02, -187500.02, -187500.02, -187500.02, -141176.98, -165636.02, -187500.02, -187500.02, -187500.02, -187500.02, -187500.02, -187500.02, 0.00, 0.00, 0.00
164, -149043.95, -179571.20, -187500.02, -187500.02, -187500.02, -187500.02, -187500.02, -187500.02, -141177.23, -165637.63, -187500.02, -187500.02, -187500.02, -187500.02, -187500.02, -187500.02, 0.00, 0.00, 0.00
165, -149039.13, -179568.41, -187500.02, -187500.02, -187500.02, -187500.02, -187500.02, -187500.02, -141177.23, -165637.63, -187500.02, -187500.02, -187500.02, -187500.02, -187500.02, -187500.02, 0.00, 0.00, 0.00
166, -149039.13, -179568.41, -187500.02, -187500.02, -187500.02, -187500.02, -187500.02, -187500.02, -141167.67, -165631.00, -187500.02, -187500.02, -187500.02, -187500.02, -187500.02, -187500.02, 0.00, 0.00, 0.00
167, -149035.77, -179566.88, -187500.02, -187500.02, -187500.02, -187500.02, -187500.02, -187500.02, -141167.67, -165631.00, -187500.02, -187500.02, -187500.02, -187500.02, -187500.02, -187500.02, 0.00, -0.20, 0.96
168, -149035.77, -179566.88, -187500.02, -187500.02, -187500.02, -187500.02, -187500.02, -187500.02, -141166.73, -165631.27, -187500.02, -187500.02, -187500.02, -187500.02, -187500.02, -187500.02, 0.00, 0.00, 0.00
169, -149029.00, -179562.33, -187500.02, -187500.02, -187500.02, -187500.02, -187500.02, -187500.02, -141166.73, -165631.27, -187500.02, -187500.02, -187500.02, -187500.02, -187500.02, -187500.02, 0.00, 0.00, 0.00
170, -149029.00, -179562.33, -187500.02, -187500.02, -187500.02, -187500.02, -187500.02, -187500.02, -141157.30, -165625.11, -187500.02, -187500.02, -187500.02, -187500.02, -187500.02, -187500.02, 0.00, 0.00, 0.00
171, -149026.61, -179561.89, -187500.02, -187500.02, -187500.02, -187500.02, -187500.02, -187500.02, -141157.30, -165625.11, -187500.02, -187500.02, -187500.02, -187500.02, -187500.02, -187500.02, 0.00, 0.00, 0.00
172, -149026.61, -179561.89, -187500.02, -187500.02, -187500.02, -187500.02, -187500.02, -187500.02, -141156.58, -165625.48, -187500.02, -187500.02, -187500.02, -187500.02, -187500.02, -187500.02, 0.00, 0.00, 0.00
173, -149019.88, -179557.39, -187500.02, -187500.02, -187500.02, -187500.02, -187500.02, -187500.02, -141156.58, -165625.48, -187500.02, -187500.02, -187500.02, -187500.02, -187500.02, -187500.02, 0.00, 0.00, 0.00
174, -149019.88, -179557.39, -187500.02, -187500.02, -187500.02, -187500.02, -187500.02, -187500.02, -141145.31, -165617.45, -187500.02, -187500.02, -187500.02, -187500.02, -187500.02, -187500.02, 0.00, 0.00, 0.00
175, -149013.69, -179552.97, -187500.02, -187500.02, -187500.02, -187500.02, -187500.02, -187500.02, -141145.31, -165617.45, -187500.02, -187500.02, -187500.02, -187500.02, -187500.02, -187500.02, 0.00, 0.00, 0.00
176, -149013.69, -179552.97, -187500.02, -187500.02, -187500.02, -187500.02, -187500.02, -187500.02, -141144.11, -165617.33, -187500.02, -187500.02, -187500.02, -187500.02, -187500.02, -187500.02, 0.00, 0.00, 0.00
177, -149009.48, -179550.95, -187500.02, -187500.02, -187500.02, -187500.02, -187500.02, -187500.02, -141144.11, -165617.33, -187500.02, -187500.02, -187500.02, -187500.02, -187500.02, -187500.02, 0.00, -0.20, 0.96
178, -149009.48, -179550.95, -187500.02, -187500.02, -187500.02, -187500.02, -187500.02, -187500.02, -141133.78, -165610.53, -187500.02, -187500.02, -187500.02, -187500.02, -187500.02, -187500.02, 0.00, 0.00, 0.00
179, -149003.66, -179546.95, -187500.02, -187500.02, -187500.02, -187500.02, -187500.02, -187500.02, -141133.78, -165610.53, -187500.02, -187500.02, -187500.02, -187500.02, -187500.02, -187500.02, 0.00, 0.00, 0.00
180, -149003.66, -179546.95, -187500.02, -187500.02, -187500.02, -187500.02, -187500.02, -187500.02, -141132.80, -165610.48, -187500.02, -187500.02, -187500.02, -187500.02, -187500.02, -187500.02, 0.00, 0.00, 0.00
181, -149000.19, -179545.75, -187500.02, -187500.02, -187500.02, -187500.02, -187500.02, -187500.02, -141132.80, -165610.48, -187500.02, -187500.02, -187500.02, -187500.02, -187500.02, -187500.02, 0.00, 0.00, 0.00
182, -149000.19, -179545.75, -187500.02, -187500.02, -187500.02, -187500.02, -187500.02, -187500.02, -141123.23, -165604.25, -187500.02, -187500.02, -187500.02, -187500.02, -187500.02, -187500.02, 0.00, 0.00, 0.00
183, -148992.55, -179539.75, -187500.02, -187500.02, -187500.02, -187500.02, -187500.02, -187500.02, -141123.23, -165604.25, -187500.02, -187500.02, -187500.02, -187500.02, -187500.02, -187500.02, 0.00, 0.00, 0.00
184, -148992.55, -179539.75, -187500.02, -187500.02, -187500.02, -187500.02, -187500.02, -187500.02, -141121.89, -165603.98, -187500.02, -187500.02, -187500.02, -187500.02, -187500.02, -187500.02, 0.00, 0.00, 0.00
185, -148992.75, -179542.19, -187500.02, -187500.02, -187500.02, -187500.02, -187500.02, -187500.02, -141121.89, -165603.98, -187500.02, -187500.02, -187500.02, -187500.02, -187500.02, -187500.02, 0.00, 0.00, 0.00
186, -148992.75, -179542.19, -187500.02, -187500.02, -187500.02, -187500.02, -187500.02, -187500.02, -141114.38, -165599.64, -187500.02, -187500.02, -187500.02, -187500.02, -187500.02, -187500.02, 0.00, 0.00, 0.00
187, -148983.89, -179535.17, -187500.02, -187500.02, -187500.02, -187500.02, -187500.02, -187500.02, -141114.38, -165599.64, -187500.02, -187500.02, -187500.02, -187500.02, -187500.02, -187500.02, 0.00, -0.20, 0.96
188, -148983.89, -179535.17, -187500.02, -187500.02, -187500.02, -187500.02, -187500.02, -187500.02, -141111.19, -165597.77, -187500.02, -187500.02, -187500.02, -187500.02, -187500.02, -187500.02, 0.00, 0.00, 0.00
189, -148980.94, -179534.41, -187500.02, -187500.02, -187500.02, -187500.02, -187500.02, -187500.02, -141111.19, -165597.77, -187500.02, -187500.02, -187500.02, -187500.02, -187500.02, -187500.02, 0.00, 0.00, 0.00
190, -148980.94, -179534.41, -187500.02, -187500.02, -187500.02, -187500.02, -187500.02, -187500.02, -141100.81, -165590.14, -187500.02, -187500.02, -187500.02, -187500.02, -187500.02, -187500.02, 0.00, 0.00, 0.00
191, -148970.77, -179526.08, -187500.02, -187500.02, -187500.02, -187500.02, -187500.02, -187500.02, -141100.81, -165590.14, -187500.02, -187500.02, -187500.02, -187500.02, -187500.02, -187500.02, 0.00, 0.00, 0.00
192, -148970.77, -179526.08, -187500.02, -187500.02, -187500.02, -187500.02, -187500.02, -187500.02, -141097.84, -165588.73, -187500.02, -187500.02, -187500.02, -187500.02, -187500.02, -187500.02, 0.00, 0.00, 0.00
193, -148971.63, -179529.16, -187500.02, -187500.02, -187500.02, -187500.02, -187500.02, -187500.02, -141097.84, -165588.73, -187500.02, -187500.02, -187500.02, -187500.02, -187500.02, -187500.02, 0.00, 0.00, 0.00
194, -148971.63, -179529.16, -187500.02, -187500.02, -187500.02, -187500.02, -187500.02, -187500.02, -141092.28, -165585.89, -187500.02, -187500.02, -187500.02, -187500.02, -187500.02, -187500.02, 0.00, 0.00, 0.00
195, -148961.34, -179520.75, -187500.02, -187500.02, -187500.02, -187500.02, -187500.02, -187500.02, -141092.28, -165585.89, -187500.02, -187500.02, -187500.02, -187500.02, -187500.02, -187500.02, 0.00, 0.00, 0.00
196, -148961.34, -179520.75, -187500.02, -187500.02, -187500.02, -187500.02, -187500.02, -187500.02, -141084.88, -165580.23, -187500.02, -187500.02, -187500.02, -187500.02, -187500.02, -187500.02, 0.00, 0.00, 0.00
197, -148959.23, -179520.63, -187500.02, -187500.02, -187500.02, -187500.02, -187500.02, -187500.02, -141084.88, -165580.23, -187500.02, -187500.02, -187500.02, -187500.02, -187500.02, -187500.02, 0.01, -0.20, 0.95
198, -148959.23, -179520.63, -187500.02, -187500.02, -187500.02, -187500.02, -187500.02, -187500.02, -141078.44, -165576.20, -187500.02, -187500.02, -187500.02, -187500.02, -187500.02, -187500.02, 0.00, 0.00, 0.00
199, -148949.38, -179512.70, -187500.02, -187500.02, -187500.02, -187500.02, -187500.02, -187500.02, -141078.44, -165576.20, -187500.02, -187500.02, -187500.02, -187500.02, -187500.02, -187500.02, 0.00, 0.00, 0.00
200, -148949.38, -179512.70, -187500.02, -187500.02, -187500.02, -187500.02, -187500.02, -187500.02, -141072.19, -165572.06, -187500.02, -187500.02, -187500.02, -187500.02, -187500.02, -187500.02, 0.00, 0.00, 0.00
201, -148947.69, -179513.20, -187500.02, -187500.02, -187500.02, -187500.02, -187500.02, -187500.02, -141072.19, -165572.06, -187500.02, -187500.02, -187500.02, -187500.02, -187500.02, -187500.02, 0.00, 0.00, 0.00
202, -148947.69, -179513.20, -187500.02, -187500.02, -187500.02, -187500.02, -187500.02, -187500.02, -141066.17, -165568.13, -187500.02, -187500.02, -187500.02, -187500.02, -187500.02, -187500.02, 0.00, 0.00, 0.00
203, -148936.94, -179504.50, -187500.02, -187500.02, -187500.02, -187500.02, -187500.02, -187500.02, -141066.17, -165568.13, -187500.02, -187500.02, -187500.02, -187500.02, -187500.02, -187500.02, 0.00, 0.00, 0.00
204, -148936.94, -179504.50, -187500.02, -187500.02, -187500.02, -187500.02, -187500.02, -187500.02, -141059.63, -165564.06, -187500.02, -187500.02, -187500.02, -187500.02, -187500.02, -187500.02, 0.00, 0.00, 0.00
205, -148939.02, -179508.66, -187500.02, -187500.02, -187500.02, -187500.02, -187500.02, -187500.02, -141059.63, -165564.06, -187500.02, -187500.02, -187500.02, -187500.02, -187500.02, -187500.02, 0.00, 0.00, 0.00
206, -148939.02, -179508.66, -187500.02, -187500.02, -187500.02, -187500.02, -187500.02, -187500.02, -141058.84, -165564.81, -187500.02, -187500.02, -187500.02, -187500.02, -187500.02, -187500.02, 0.00, 0.00, 0.00
207, -148931.44, -179502.98, -187500.02, -187500.02, -187500.02, -187500.02, -187500.02, -187500.02, -141058.84, -165564.81, -187500.02, -187500.02, -187500.02, -187500.02, -187500.02, -187500.02, 0.01, -0.20, 0.95
208, -148931.44, -179502.98, -187500.02, -187500.02, -187500.02, -187500.02, -187500.02, -187500.02, -141051.06, -165559.81, -187500.02, -187500.02, -187500.02, -187500.02, -187500.02, -187500.02, 0.00, 0.00, 0.00
209, -148930.03, -179503.45, -187500.02, -187500.02, -187500.02, -187500.02, -187500.02, -187500.02, -141051.06, -165559.81, -187500.02, -187500.02, -187500.02, -187500.02, -187500.02, -187500.02, 0.00, 0.00, 0.00
210, -148930.03, -179503.45, -187500.02, -187500.02, -187500.02, -187500.02, -187500.02, -187500.02, -141048.63, -165558.94, -187500.02, -187500.02, -187500.02, -187500.02, -187500.02, -187500.02, 0.00, 0.00, 0.00
211, -148920.30, -179495.86, -187500.02, -187500.02, -187500.02, -187500.02, -187500.02, -187500.02, -141048.63, -165558.94, -187500.02, -187500.02, -187500.02, -187500.02, -187500.02, -187500.02, 0.00, 0.00, 0.00
212, -148920.30, -179495.86, -187500.02, -187500.02, -187500.02, -187500.02, -187500.02, -187500.02, -141036.47, -165549.64, -187500.02, -187500.02, -187500.02, -187500.02, -187500.02, -187500.02, 0.00, 0.00, 0.00
213, -148917.67, -179495.03, -187500.02, -187500.02, -187500.02, -187500.02, -187500.02, -187500.02, -141036.47, -165549.64, -187500.02, -187500.02, -187500.02, -187500.02, -187500.02, -187500.02, 0.00, 0.00, 0.00
214, -148917.67, -179495.03, -187500.02, -187500.02, -187500.02, -187500.02, -187500.02, -187500.02, -141038.14, -165552.64, -187500.02, -187500.02, -187500.02, -187500.02, -187500.02, -187500.02, 0.00, 0.00, 0.00
215, -148912.75, -179492.19, -187500.02, -187500.02, -187500.02, -187500.02, -187500.02, -187500.02, -141038.14, -165552.64, -187500.02, -187500.02, -187500.02, -187500.02, -187500.02, -187500.02, 0.00, 0.00, 0.00
216, -148912.75, -179492.19, -187500.02, -187500.02, -187500.02, -187500.02, -187500.02, -187500.02, -141028.91, -165546.48, -187500.02, -187500.02, -187500.02, -187500.02, -187500.02, -187500.02, 0.00, 0.00, 0.00
217, -148911.88, -179493.27, -187500.02, -187500.02, -187500.02, -187500.02, -187500.02, -187500.02, -141028.91, -165546.48, -187500.02, -187500.02, -187500.02, -187500.02, -187500.02, -187500.02, 0.00, -0.21, 0.96
218, -148911.88, -179493.27, -187500.02, -187500.02, -187500.02, -187500.02, -187500.02, -187500.02, -141029.78, -165548.56, -187500.02, -187500.02, -187500.02, -187500.02, -187500.02, -187500.02, 0.00, 0.00, 0.00
219, -148903.52, -179487.14, -187500.02, -187500.02, -187500.02, -187500.02, -187500.02, -187500.02, -141029.78, -165548.56, -187500.02, -187500.02, -187500.02, -187500.02, -187500.02, -187500.02, 0.00, 0.00, 0.00
220, -148903.52, -179487.14, -187500.02, -187500.02, -187500.02, -187500.02, -187500.02, -187500.02, -141015.36, -165537.48, -187500.02, -187500.02, -187500.02, -187500.02, -187500.02, -187500.02, 0.00, 0.00, 0.00
221, -148896.78, -179482.22, -187500.02, -187500.02, -187500.02, -187500.02, -187500.02, -187500.02, -141015.36, -165537.48, -187500.02, -187500.02, -187500.02, -187500.02, -187500.02, -187500.02, 0.00, 0.00, 0.00
222, -148896.78, -179482.22, -187500.02, -187500.02, -187500.02, -187500.02, -187500.02, -187500.02, -141014.84, -165537.89, -187500.02, -187500.02, -187500.02, -187500.02, -187500.02, -187500.02, 0.00, 0.00, 0.00
223, -148892.08, -179479.67, -187500.02, -187500.02, -187500.02, -187500.02, -187500.02, -187500.02, -141014.84, -165537.89, -187500.02, -187500.02, -187500.02, -187500.02, -187500.02, -187500.02, 0.00, 0.00, 0.00
224, -148892.08, -179479.67, -187500.02, -187500.02, -187500.02, -187500.02, -187500.02, -187500.02, -141003.56, -165530.00, -187500.02, -187500.02, -187500.02, -187500.02, -187500.02, -187500.02, 0.00, 0.00, 0.00
225, -148885.02, -179474.31, -187500.02, -187500.02, -187500.02, -187500.02, -187500.02, -187500.02, -141003.56, -165530.00, -187500.02, -187500.02, -187500.02, -187500.02, -187500.02, -187500.02, 0.00, 0.00, 0.00
226, -148885.02, -179474.31, -187500.02, -187500.02, -187500.02, -187500.02, -187500.02, -187500.02, -141003.83, -165531.02, -187500.02, -187500.02, -187500.02, -187500.02, -187500.02, -187500.02, 0.00, 0.00, 0.00
227, -148884.77, -179476.44, -187500.02, -187500.02, -187500.02, -187500.02, -187500.02, -187500.02, -141003.83, -165531.02, -187500.02, -187500.02, -187500.02, -187500.02, -187500.02, -187500.02, 0.00, -0.21, 0.95
228, -148884.77, -179476.44, -187500.02, -187500.02, -187500.02, -187500.02, -187500.02, -187500.02, -140996.56, -165527.25, -187500.02, -187500.02, -187500.02, -187500.02, -187500.02, -187500.02, 0.00, 0.00, 0.00
229, -148880.94, -179474.33, -187500.02, -187500.02, -187500.02, -187500.02, -187500.02, -187500.02, -140996.56, -165527.25, -187500.02, -187500.02, -187500.02, -187500.02, -187500.02, -187500.02, 0.00, 0.00, 0.00
230, -148880.94, -179474.33, -187500.02, -187500.02, -187500.02, -187500.02, -187500.02, -187500.02, -140998.08, -165529.80, -187500.02, -187500.02, -187500.02, -187500.02, -187500.02, -187500.02, 0.00, 0.00, 0.00
231, -148877.23, -179472.83, -187500.02, -187500.02, -187500.02, -187500.02, -187500.02, -187500.02, -140998.08, -165529.80, -187500.02, -187500.02, -187500.02, -187500.02, -187500.02, -187500.02, 0.00, 0.00, 0.00
232, -148877.23, -179472.83, -187500.02, -187500.02, -187500.02, -187500.02, -187500.02, -187500.02, -140984.03, -165519.00, -187500.02, -187500.02, -187500.02, -187500.02, -187500.02, -187500.02, 0.00, 0.00, 0.00
233, -148867.11, -179464.47, -187500.02, -187500.02, -187500.02, -187500.02, -187500.02, -187500.02, -140984.03, -165519.00, -187500.02, -187500.02, -187500.02, -187500.02, -187500.02, -187500.02, 0.00, 0.00, 0.00
234, -148867.11, -179464.47, -187500.02, -187500.02, -187500.02, -187500.02, -187500.02, -187500.02, -140983.63, -165519.84, -187500.02, -187500.02, -187500.02, -187500.02, -187500.02, -187500.02, 0.00, 0.00, 0.00
235, -148865.27, -179464.78, -187500.02, -187500.02, -187500.02, -187500.02, -187500.02, -187500.02, -140983.63, -165519.84, -187500.02, -187500.02, -187500.02, -187500.02, -187500.02, -187500.02, 0.00, 0.00, 0.00
236, -148865.27, -179464.78, -187500.02, -187500.02, -187500.02, -187500.02, -187500.02, -187500.02, -140971.38, -165510.59, -187500.02, -187500.02, -187500.02, -187500.02, -187500.02, -187500.02, 0.00, 0.00, 0.00
237, -148853.19, -179454.42, -187500.02, -187500.02, -187500.02, -187500.02, -187500.02, -187500.02, -140971.38, -165510.59, -187500.02, -187500.02, -187500.02, -187500.02, -187500.02, -187500.02, 0.01, -0.20, 0.95
238, -148853.19, -179454.42, -187500.02, -187500.02, -187500.02, -187500.02, -187500.02, -187500.02, -140968.92, -165509.41, -187500.02, -187500.02, -187500.02, -187500.02, -187500.02, -187500.02, 0.00, 0.00, 0.00
239, -148855.08, -179458.64, -187500.02, -187500.02, -187500.02, -187500.02, -187500.02, -187500.02, -140968.92, -165509.41, -187500.02, -187500.02, -187500.02, -187500.02, -187500.02, -187500.02, 0.00, 0.00, 0.00
240, -148855.08, -179458.64, -187500.02, -187500.02, -187500.02, -187500.02, -187500.02, -187500.02, -140962.08, -165505.47, -187500.02, -187500.02, -187500.02, -187500.02, -187500.02, -187500.02, 0.00, 0.00, 0.00
241, -148844.58, -179449.98, -187500.02, -187500.02, -187500.02, -187500.02, -187500.02, -187500.02, -140962.08, -165505.47, -187500.02, -187500.02, -187500.02, -187500.02, -187500.02, -187500.02, 0.00, 0.00, 0.00
242, -148844.58, -179449.98, -187500.02, -187500.02, -187500.02, -187500.02, -187500.02, -187500.02, -140957.72, -165502.69, -187500.02, -187500.02, -187500.02, -187500.02, -187500.02, -187500.02, 0.00, 0.00, 0.00
243, -148844.91, -179452.47, -187500.02, -187500.02, -187500.02, -187500.02, -187500.02, -187500.02, -140957.72, -165502.69, -187500.02, -187500.02, -187500.02, -187500.02, -187500.02, -187500.02, 0.00, 0.00, 0.00
244, -148844.91, -179452.47, -187500.02, -187500.02, -187500.02, -187500.02, -187500.02, -187500.02, -140953.03, -165500.63, -187500.02, -187500.02, -187500.02, -187500.02, -187500.02, -187500.02, 0.00, 0.00, 0.00
245, -148836.44, -179445.77, -187500.02, -187500.02, -187500.02, -187500.02, -187500.02, -187500.02, -140953.03, -165500.63, -187500.02, -187500.02, -187500.02, -187500.02, -187500.02, -187500.02, 0.00, 0.00, 0.00
246, -148836.44, -179445.77, -187500.02, -187500.02, -187500.02, -187500.02, -187500.02, -187500.02, -140947.61, -165497.09, -187500.02, -187500.02, -187500.02, -187500.02, -187500.02, -187500.02, 0.00, 0.00, 0.00
247, -148836.34, -179447.83, -187500.02, -187500.02, -187500.02, -187500.02, -187500.02, -187500.02, -140947.61, -165497.09, -187500.02, -187500.02, -187500.02, -187500.02, -187500.02, -187500.02, 0.01, -0.20, 0.95
248, -148836.34, -179447.83, -187500.02, -187500.02, -187500.02, -187500.02, -187500.02, -187500.02, -140943.28, -165495.08, -187500.02, -187500.02, -187500.02, -187500.02, -187500.02, -187500.02, 0.00, 0.00, 0.00
249, -148827.47, -179440.83, -187500.02, -187500.02, -187500.02, -187500.02, -187500.02, -187500.02, -140943.28, -165495.08, -187500.02, -187500.02, -187500.02, -187500.02, -187500.02, -187500.02, 0.00, 0.00, 0.00
250, -148827.47, -179440.83, -187500.02, -187500.02, -187500.02, -187500.02, -187500.02, -187500.02, -140936.34, -165490.39, -187500.02, -187500.02, -187500.02, -187500.02, -187500.02, -187500.02, 0.00, 0.00, 0.00
251, -148828.03, -179443.39, -187500.02, -187500.02, -187500.02, -187500.02, -187500.02, -187500.02, -140936.34, -165490.39, -187500.02, -187500.02, -187500.02, -187500.02, -187500.02, -187500.02, 0.00, 0.00, 0.00
252, -148828.03, -179443.39, -187500.02, -187500.02, -187500.02, -187500.02, -187500.02, -187500.02, -140934.98, -165490.95, -187500.02, -187500.02, -187500.02, -187500.02, -187500.02, -187500.02, 0.00, 0.00, 0.00
253, -148818.42, -179435.89, -187500.02, -187500.02, -187500.02, -187500.02, -187500.02, -187500.02, -140934.98, -165490.95, -187500.02, -187500.02, -187500.02, -187500.02, -187500.02, -187500.02, 0.00, 0.00, 0.00
254, -148818.42, -179435.89, -187500.02, -187500.02, -187500.02, -187500.02, -187500.02, -187500.02, -140924.30, -165482.70, -187500.02, -187500.02, -187500.02, -187500.02, -187500.02, -187500.02, 0.00, 0.00, 0.00
255, -148813.81, -179433.27, -187500.02, -187500.02, -187500.02, -187500.02, -187500.02, -187500.02, -140924.30, -165482.70, -187500.02, -187500.02, -187500.02, -187500.02, -187500.02, -187500.02, 0.00, 0.00, 0.00
0, -148813.81, -179433.27, -187500.02, -187500.02, -187500.02, -187500.02, -187500.02, -187500.02, -140918.20, -165478.19, -187500.02, -187500.02, -187500.02, -187500.02, -187500.02, -187500.02, 0.00, 0.00, 0.00
1, -148802.44, -179423.92, -187500.02, -187500.02, -187500.02, -187500.02, -187500.02, -187500.02, -140918.20, -165478.19, -187500.02, -187500.02, -187500.02, -187500.02, -187500.02, -187500.02, 0.01, -0.20, 0.95
2, -148802.44, -179423.92, -187500.02, -187500.02, -187500.02, -187500.02, -187500.02, -187500.02, -140909.55, -165472.50, -187500.02, -187500.02, -187500.02, -187500.02, -187500.02, -187500.02, 0.00, 0.00, 0.00
3, -148803.73, -179427.14, -187500.02, -187500.02, -187500.02, -187500.02, -187500.02, -187500.02, -140909.55, -165472.50, -187500.02, -187500.02, -187500.02, -187500.02, -187500.02, -187500.02, 0.00, 0.00, 0.00
4, -148803.73, -179427.14, -187500.02, -187500.02, -187500.02, -187500.02, -187500.02, -187500.02, -140908.98, -165473.25, -187500.02, -187500.02, -187500.02, -187500.02, -187500.02, -187500.02, 0.00, 0.00, 0.00
5, -148794.59, -179420.20, -187500.02, -187500.02, -187500.02, -187500.02, -187500.02, -187500.02, -140908.98, -165473.25, -187500.02, -187500.02, -187500.02, -187500.02, -187500.02, -187500.02, 0.00, 0.00, 0.00
6, -148794.59, -179420.20, -187500.02, -187500.02, -187500.02, -187500.02, -187500.02, -187500.02, -140898.42, -165465.67, -187500.02, -187500.02, -187500.02, -187500.02, -187500.02, -187500.02, 0.00, 0.00, 0.00
7, -148792.20, -179419.56, -187500.02, -187500.02, -187500.02, -187500.02, -187500.02, -187500.02, -140898.42, -165465.67, -187500.02, -187500.02, -187500.02, -187500.02, -187500.02, -187500.02, 0.00, 0.00, 0.00
8, -148792.20, -179419.56, -187500.02, -187500.02, -187500.02, -187500.02, -187500.02, -187500.02, -140899.41, -165467.81, -187500.02, -187500.02, -187500.02, -187500.02, -187500.02, -187500.02, 0.00, 0.00, 0.00
9, -148787.84, -179417.22, -187500.02, -187500.02, -187500.02, -187500.02, -187500.02, -187500.02, -140899.41, -165467.81, -187500.02, -187500.02, -187500.02, -187500.02, -187500.02, -187500.02, 0.00, 0.00, 0.00
10, -148787.84, -179417.22, -187500.02, -187500.02, -187500.02, -187500.02, -187500.02, -187500.02, -140889.05, -165460.59, -187500.02, -187500.02, -187500.02, -187500.02, -187500.02, -187500.02, 0.00, 0.00, 0.00
11, -148783.72, -179415.03, -187500.02, -187500.02, -187500.02, -187500.02, -187500.02, -187500.02, -140889.05, -165460.59, -187500.02, -187500.02, -187500.02, -187500.02, -187500.02, -187500.02, 0.01, -0.20, 0.96
12, -148783.72, -179415.03, -187500.02, -187500.02, -187500.02, -187500.02, -187500.02, -187500.02, -140889.52, -165462.14, -187500.02, -187500.02, -187500.02, -187500.02, -187500.02, -187500.02, 0.00, 0.00, 0.00
13, -148778.03, -179411.52, -187500.02, -187500.02, -187500.02, -187500.02, -187500.02, -187500.02, -140889.52, -165462.14, -187500.02, -187500.02, -187500.02, -187500.02, -187500.02, -187500.02, 0.00, 0.00, 0.00
14, -148778.03, -179411.52, -187500.02, -187500.02, -187500.02, -187500.02, -187500.02, -187500.02, -140878.45, -165454.41, -187500.02, -187500.02, -187500.02, -187500.02, -187500.02, -187500.02, 0.00, 0.00, 0.00
15, -148774.55, -179409.88, -187500.02, -187500.02, -187500.02, -187500.02, -187500.02, -187500.02, -140878.45, -165454.41, -187500.02, -187500.02, -187500.02, -187500.02, -187500.02, -187500.02, 0.00, 0.00, 0.00
16, -148774.55, -179409.88, -187500.02, -187500.02, -187500.02, -187500.02, -187500.02, -187500.02, -140880.05, -165457.03, -187500.02, -187500.02, -187500.02, -187500.02, -187500.02, -187500.02, 0.00, 0.00, 0.00
17, -148770.95, -179408.33, -187500.02, -187500.02, -187500.02, -187500.02, -187500.02, -187500.02, -140880.05, -165457.03, -187500.02, -187500.02, -187500.02, -187500.02, -187500.02, -187500.02, 0.00, 0.00, 0.00
18, -148770.95, -179408.33, -187500.02, -187500.02, -187500.02, -187500.02, -187500.02, -187500.02, -140869.81, -165450.06, -187500.02, -187500.02, -187500.02, -187500.02, -187500.02, -187500.02, 0.00, 0.00, 0.00
19, -148765.83, -179405.08, -187500.02, -187500.02, -187500.02, -187500.02, -187500.02, -187500.02, -140869.81, -165450.06, -187500.02, -187500.02, -187500.02, -187500.02, -187500.02, -187500.02, 0.00, 0.00, 0.00
20, -148765.83, -179405.08, -187500.02, -187500.02, -187500.02, -187500.02, -187500.02, -187500.02, -140871.19, -165452.45, -187500.02, -187500.02, -187500.02, -187500.02, -187500.02, -187500.02, 0.00, 0.00, 0.00
21, -148761.67, -179403.25, -187500.02, -187500.02, -187500.02, -187500.02, -187500.02, -187500.02, -140871.19, -165452.45, -187500.02, -187500.02, -187500.02, -187500.02, -187500.02, -187500.02, 0.00, -0.20, 0.96
22, -148761.67, -179403.25, -187500.02, -187500.02, -187500.02, -187500.02, -187500.02, -187500.02, -140856.02, -165440.45, -187500.02, -187500.02, -187500.02, -187500.02, -187500.02, -187500.02, 0.00, 0.00, 0.00
23, -148750.52, -179393.64, -187500.02, -187500.02, -187500.02, -187500.02, -187500.02, -187500.02, -140856.02, -165440.45, -187500.02, -187500.02, -187500.02, -187500.02, -187500.02, -187500.02, 0.00, 0.00, 0.00
24, -148750.52, -179393.64, -187500.02, -187500.02, -187500.02, -187500.02, -187500.02, -187500.02, -140855.86, -165441.55, -187500.02, -187500.02, -187500.02, -187500.02, -187500.02, -187500.02, 0.00, 0.00, 0.00
25, -148751.55, -179396.86, -187500.02, -187500.02, -187500.02, -187500.02, -187500.02, -187500.02, -140855.86, -165441.55, -187500.02, -187500.02, -187500.02, -187500.02, -187500.02, -187500.02, 0.00, 0.00, 0.00
26, -148751.55, -179396.86, -187500.02, -187500.02, -187500.02, -187500.02, -187500.02, -187500.02, -140847.19, -165436.19, -187500.02, -187500.02, -187500.02, -187500.02, -187500.02, -187500.02, 0.00, 0.00, 0.00
27, -148742.55, -179389.59, -187500.02, -187500.02, -187500.02, -187500.02, -187500.02, -187500.02, -140847.19, -165436.19, -187500.02, -187500.02, -187500.02, -187500.02, -187500.02, -187500.02, 0.00, 0.00, 0.00
28, -148742.55, -179389.59, -187500.02, -187500.02, -187500.02, -187500.02, -187500.02, -187500.02, -140844.89, -165435.09, -187500.02, -187500.02, -187500.02, -187500.02, -187500.02, -187500.02, 0.00, 0.00, 0.00
29, -148740.91, -179390.22, -187500.02, -187500.02, -187500.02, -187500.02, -187500.02, -187500.02, -140844.89, -165435.09, -187500.02, -187500.02, -187500.02, -187500.02, -187500.02, -187500.02, 0.00, 0.00, 0.00
30, -148740.91, -179390.22, -187500.02, -187500.02, -187500.02, -187500.02, -187500.02, -187500.02, -140837.94, -165431.00, -187500.02, -187500.02, -187500.02, -187500.02, -187500.02, -187500.02, 0.00, 0.00, 0.00
31, -148735.28, -179386.28, -187500.02, -187500.02, -187500.02, -187500.02, -187500.02, -187500.02, -140837.94, -165431.00, -187500.02, -187500.02, -187500.02, -187500.02, -187500.02, -187500.02, 0.00, -0.20, 0.95
32, -148735.28, -179386.28, -187500.02, -187500.02, -187500.02, -187500.02, -187500.02, -187500.02, -140835.78, -165430.38, -187500.02, -187500.02, -187500.02, -187500.02, -187500.02, -187500.02, 0.00, 0.00, 0.00
33, -148735.31, -179388.59, -187500.02, -187500.02, -187500.02, -187500.02, -187500.02, -187500.02, -140835.78, -165430.38, -187500.02, -187500.02, -187500.02, -187500.02, -187500.02, -187500.02, 0.00, 0.00, 0.00
34, -148735.31, -179388.59, -187500.02, -187500.02, -187500.02, -187500.02, -187500.02, -187500.02, -140830.25, -165427.44, -187500.02, -187500.02, -187500.02, -187500.02, -187500.02, -187500.02, 0.00, 0.00, 0.00
35, -148725.69, -179380.86, -187500.02, -187500.02, -187500.02, -187500.02, -187500.02, -187500.02, -140830.25, -165427.44, -187500.02, -187500.02, -187500.02, -187500.02, -187500.02, -187500.02, 0.00, 0.00, 0.00
36, -148725.69, -179380.86, -187500.02, -187500.02, -187500.02, -187500.02, -187500.02, -187500.02, -140825.48, -165424.56, -187500.02, -187500.02, -187500.02, -187500.02, -187500.02, -187500.02, 0.00, 0.00, 0.00
37, -148726.27, -179383.58, -187500.02, -187500.02, -187500.02, -187500.02, -187500.02, -187500.02, -140825.48, -165424.56, -187500.02, -187500.02, -187500.02, -187500.02, -187500.02, -187500.02, 0.00, 0.00, 0.00
38, -148726.27, -179383.58, -187500.02, -187500.02, -187500.02, -187500.02, -187500.02, -187500.02, -140820.30, -165421.67, -187500.02, -187500.02, -187500.02, -187500.02, -187500.02, -187500.02, 0.00, 0.00, 0.00
39, -148716.52, -179375.61, -187500.02, -187500.02, -187500.02, -187500.02, -187500.02, -187500.02, -140820.30, -165421.67, -187500.02, -187500.02, -187500.02, -187500.02, -187500.02, -187500.02, 0.00, 0.00, 0.00
40, -148716.52, -179375.61, -187500.02, -187500.02, -187500.02, -187500.02, -187500.02, -187500.02, -140812.94, -165416.50, -187500.02, -187500.02, -187500.02, -187500.02, -187500.02, -187500.02, 0.00, 0.00, 0.00
41, -148714.94, -179376.14, -187500.02, -187500.02, -187500.02, -187500.02, -187500.02, -187500.02, -140812.94, -165416.50, -187500.02, -187500.02, -187500.02, -187500.02, -187500.02, -187500.02, 0.00, -0.20, 0.94
42, -148714.94, -179376.14, -187500.02, -187500.02, -187500.02, -187500.02, -187500.02, -187500.02, -140809.48, -165415.08, -187500.02, -187500.02, -187500.02, -187500.02, -187500.02, -187500.02, 0.00, 0.00, 0.00
43, -148707.06, -179370.13, -187500.02, -187500.02, -187500.02, -187500.02, -187500.02, -187500.02, -140809.48, -165415.08, -187500.02, -187500.02, -187500.02, -187500.02, -187500.02, -187500.02, 0.00, 0.00, 0.00
44, -148707.06, -179370.13, -187500.02, -187500.02, -187500.02, -187500.02, -187500.02, -187500.02, -140802.64, -165410.66, -187500.02, -187500.02, -187500.02, -187500.02, -187500.02, -187500.02, 0.00, 0.00, 0.00
45, -148705.70, -179370.70, -187500.02, -187500.02, -187500.02, -187500.02, -187500.02, -187500.02, -140802.64, -165410.66, -187500.02, -187500.02, -187500.02, -187500.02, -187500.02, -187500.02, 0.00, 0.00, 0.00
46, -148705.70, -179370.70, -187500.02, -187500.02, -187500.02, -187500.02, -187500.02, -187500.02, -140799.36, -165409.14, -187500.02, -187500.02, -187500.02, -187500.02, -187500.02, -187500.02, 0.00, 0.00, 0.00
47, -148697.59, -179364.66, -187500.02, -187500.02, -187500.02, -187500.02, -187500.02, -187500.02, -140799.36, -165409.14, -187500.02, -187500.02, -187500.02, -187500.02, -187500.02, -187500.02, 0.00, 0.00, 0.00
48, -148697.59, -179364.66, -187500.02, -187500.02, -187500.02, -187500.02, -187500.02, -187500.02, -140791.52, -165403.97, -187500.02, -187500.02, -187500.02, -187500.02, -187500.02, -187500.02, 0.00, 0.00, 0.00
49, -148695.13, -179364.23, -187500.02, -187500.02, -187500.02, -187500.02, -187500.02, -187500.02, -140791.52, -165403.97, -187500.02, -187500.02, -187500.02, -187500.02, -187500.02, -187500.02, 0.00, 0.00, 0.00
50, -148695.13, -179364.23, -187500.02, -187500.02, -187500.02, -187500.02, -187500.02, -187500.02, -140788.45, -165402.41, -187500.02, -187500.02, -187500.02, -187500.02, -187500.02, -187500.02, 0.00, 0.00, 0.00
51, -148685.94, -179356.98, -187500.02, -187500.02, -187500.02, -187500.02, -187500.02, -187500.02, -140788.45, -165402.41, -187500.02, -187500.02, -187500.02, -187500.02, -187500.02, -187500.02, 0.00, -0.21, 0.95
52, -148685.94, -179356.98, -187500.02, -187500.02, -187500.02, -187500.02, -187500.02, -187500.02, -140776.83, -165393.56, -187500.02, -187500.02, -187500.02, -187500.02, -187500.02, -187500.02, 0.00, 0.00, 0.00
53, -148684.41, -179357.44, -187500.02, -187500.02, -187500.02, -187500.02, -187500.02, -187500.02, -140776.83, -165393.56, -187500.02, -187500.02, -187500.02, -187500.02, -187500.02, -187500.02, 0.00, 0.00, 0.00
54, -148684.41, -179357.44, -187500.02, -187500.02, -187500.02, -187500.02, -187500.02, -187500.02, -140777.89, -165396.08, -187500.02, -187500.02, -187500.02, -187500.02, -187500.02, -187500.02, 0.00, 0.00, 0.00
55, -148677.25, -179352.27, -187500.02, -187500.02, -187500.02, -187500.02, -187500.02, -187500.02, -140777.89, -165396.08, -187500.02, -187500.02, -187500.02, -187500.02, -187500.02, -187500.02, 0.00, 0.00, 0.00
56, -148677.25, -179352.27, -187500.02, -187500.02, -187500.02, -187500.02, -187500.02, -187500.02, -140769.42, -165390.66, -187500.02, -187500.02, -187500.02, -187500.02, -187500.02, -187500.02, 0.00, 0.00, 0.00
57, -148676.58, -179353.44, -187500.02, -187500.02, -187500.02, -187500.02, -187500.02, -187500.02, -140769.42, -165390.66, -187500.02, -187500.02, -187500.02, -187500.02, -187500.02, -187500.02, 0.00, 0.00, 0.00
58, -148676.58, -179353.44, -187500.02, -187500.02, -187500.02, -187500.02, -187500.02, -187500.02, -140768.16, -165390.56, -187500.02, -187500.02, -187500.02, -187500.02, -187500.02, -187500.02, 0.00, 0.00, 0.00
59, -148668.80, -179347.95, -187500.02, -187500.02, -187500.02, -187500.02, -187500.02, -187500.02, -140768.16, -165390.56, -187500.02, -187500.02, -187500.02, -187500.02, -187500.02, -187500.02, 0.00, 0.00, 0.00
60, -148668.80, -179347.95, -187500.02, -187500.02, -187500.02, -187500.02, -187500.02, -187500.02, -140756.28, -165382.00, -187500.02, -187500.02, -187500.02, -187500.02, -187500.02, -187500.02, 0.00, 0.00, 0.00
61, -148663.08, -179343.89, -187500.02, -187500.02, -187500.02, -187500.02, -187500.02, -187500.02, -140756.28, -165382.00, -187500.02, -187500.02, -187500.02, -187500.02, -187500.02, -187500.02, 0.00, -0.20, 0.95
62, -148663.08, -179343.89, -187500.02, -187500.02, -187500.02, -187500.02, -187500.02, -187500.02, -140755.33, -165382.03, -187500.02, -187500.02, -187500.02, -187500.02, -187500.02, -187500.02, 0.00, 0.00, 0.00
63, -148657.48, -179340.47, -187500.02, -187500.02, -187500.02, -187500.02, -187500.02, -187500.02, -140755.33, -165382.03, -187500.02, -187500.02, -187500.02, -187500.02, -187500.02, -187500.02, 0.00, 0.00, 0.00
64, -148657.48, -179340.47, -187500.02, -187500.02, -187500.02, -187500.02, -187500.02, -187500.02, -140744.45, -165374.45, -187500.02, -187500.02, -187500.02, -187500.02, -187500.02, -187500.02, 0.00, 0.00, 0.00
65, -148653.16, -179337.88, -187500.02, -187500.02, -187500.02, -187500.02, -187500.02, -187500.02, -140744.45, -165374.45, -187500.02, -187500.02, -187500.02, -187500.02, -187500.02, -187500.02, 0.00, 0.00, 0.00
66, -148653.16, -179337.88, -187500.02, -187500.02, -187500.02, -187500.02, -187500.02, -187500.02, -140744.61, -165375.61, -187500.02, -187500.02, -187500.02, -187500.02, -187500.02, -187500.02, 0.00, 0.00, 0.00
67, -148649.13, -179336.27, -187500.02, -187500.02, -187500.02, -187500.02, -187500.02, -187500.02, -140744.61, -165375.61, -187500.02, -187500.02, -187500.02, -187500.02, -187500.02, -187500.02, 0.00, 0.00, 0.00
68, -148649.13, -179336.27, -187500.02, -187500.02, -187500.02, -187500.02, -187500.02, -187500.02, -140734.00, -165368.39, -187500.02, -187500.02, -187500.02, -187500.02, -187500.02, -187500.02, 0.00, 0.00, 0.00
69, -148640.59, -179329.27, -187500.02, -187500.02, -187500.02, -187500.02, -187500.02, -187500.02, -140734.00, -165368.39, -187500.02, -187500.02, -187500.02, -187500.02, -187500.02, -187500.02, 0.00, 0.00, 0.00
70, -148640.59, -179329.27, -187500.02, -187500.02, -187500.02, -187500.02, -187500.02, -187500.02, -140731.70, -165367.05, -187500.02, -187500.02, -187500.02, -187500.02, -187500.02, -187500.02, 0.00, 0.00, 0.00
71, -148639.19, -179330.14, -187500.02, -187500.02, -187500.02, -187500.02, -187500.02, -187500.02, -140731.70, -165367.05, -187500.02, -187500.02, -187500.02, -187500.02, -187500.02, -187500.02, 0.00, -0.20, 0.95
72, -148639.19, -179330.14, -187500.02, -187500.02, -187500.02, -187500.02, -187500.02, -187500.02, -140722.64, -165361.28, -187500.02, -187500.02, -187500.02, -187500.02, -187500.02, -187500.02, 0.00, 0.00, 0.00
73, -148631.39, -179324.06, -187500.02, -187500.02, -187500.02, -187500.02, -187500.02, -187500.02, -140722.64, -165361.28, -187500.02, -187500.02, -187500.02, -187500.02, -187500.02, -187500.02, 0.00, 0.00, 0.00
74, -148631.39, -179324.06, -187500.02, -187500.02, -187500.02, -187500.02, -187500.02, -187500.02, -140723.45, -165363.11, -187500.02, -187500.02, -187500.02, -187500.02, -187500.02, -187500.02, 0.00, 0.00, 0.00
75, -148632.25, -179327.30, -187500.02, -187500.02, -187500.02, -187500.02, -187500.02, -187500.02, -140723.45, -165363.11, -187500.02, -187500.02, -187500.02, -187500.02, -187500.02, -187500.02, 0.00, 0.00, 0.00
76, -148632.25, -179327.30, -187500.02, -187500.02, -187500.02, -187500.02, -187500.02, -187500.02, -140713.97, -165356.80, -187500.02, -187500.02, -187500.02, -187500.02, -187500.02, -187500.02, 0.00, 0.00, 0.00
77, -148621.77, -179318.39, -187500.02, -187500.02, -187500.02, -187500.02, -187500.02, -187500.02, -140713.97, -165356.80, -187500.02, -187500.02, -187500.02, -187500.02, -187500.02, -187500.02, 0.00, 0.00, 0.00
78, -148621.77, -179318.39, -187500.02, -187500.02, -187500.02, -187500.02, -187500.02, -187500.02, -140710.78, -165354.75, -187500.02, -187500.02, -187500.02, -187500.02, -187500.02, -187500.02, 0.00, 0.00, 0.00
79, -148621.66, -179320.28, -187500.02, -187500.02, -187500.02, -187500.02, -187500.02, -187500.02, -140710.78, -165354.75, -187500.02, -187500.02, -187500.02, -187500.02, -187500.02, -187500.02, 0.00, 0.00, 0.00
80, -148621.66, -179320.28, -187500.02, -187500.02, -187500.02, -187500.02, -187500.02, -187500.02, -140704.31, -165351.30, -187500.02, -187500.02, -187500.02, -187500.02, -187500.02, -187500.02, 0.00, 0.00, 0.00
81, -148613.06, -179313.53, -187500.02, -187500.02, -187500.02, -187500.02, -187500.02, -187500.02, -140704.31, -165351.30, -187500.02, -187500.02, -187500.02, -187500.02, -187500.02, -187500.02, 0.01, -0.20, 0.95
82, -148613.06, -179313.53, -187500.02, -187500.02, -187500.02, -187500.02, -187500.02, -187500.02, -140699.42, -165348.03, -187500.02, -187500.02, -187500.02, -187500.02, -187500.02, -187500.02, 0.00, 0.00, 0.00
83, -148610.98, -179313.64, -187500.02, -187500.02, -187500.02, -187500.02, -187500.02, -187500.02, -140699.42, -165348.03, -187500.02, -187500.02, -187500.02, -187500.02, -187500.02, -187500.02, 0.00, 0.00, 0.00
84, -148610.98, -179313.64, -187500.02, -187500.02, -187500.02, -187500.02, -187500.02, -187500.02, -140692.14, -165343.27, -187500.02, -187500.02, -187500.02, -187500.02, -187500.02, -187500.02, 0.00, 0.00, 0.00
85, -148601.77, -179306.20, -187500.02, -187500.02, -187500.02, -187500.02, -187500.02, -187500.02, -140692.14, -165343.27, -187500.02, -187500.02, -187500.02, -187500.02, -187500.02, -187500.02, 0.00, 0.00, 0.00
86, -148601.77, -179306.20, -187500.02, -187500.02, -187500.02, -187500.02, -187500.02, -187500.02, -140688.09, -165341.06, -187500.02, -187500.02, -187500.02, -187500.02, -187500.02, -187500.02, 0.00, 0.00, 0.00
87, -148603.06, -179309.75, -187500.02, -187500.02, -187500.02, -187500.02, -187500.02, -187500.02, -140688.09, -165341.06, -187500.02, -187500.02, -187500.02, -187500.02, -187500.02, -187500.02, 0.00, 0.00, 0.00
88, -148603.06, -179309.75, -187500.02, -187500.02, -187500.02, -187500.02, -187500.02, -187500.02, -140684.69, -165340.00, -187500.02, -187500.02, -187500.02, -187500.02, -187500.02, -187500.02, 0.00, 0.00, 0.00
89, -148592.81, -179301.34, -187500.02, -187500.02, -187500.02, -187500.02, -187500.02, -187500.02, -140684.69, -165340.00, -187500.02, -187500.02, -187500.02, -187500.02, -187500.02, -187500.02, 0.00, 0.00, 0.00
90, -148592.81, -179301.34, -187500.02, -187500.02, -187500.02, -187500.02, -187500.02, -187500.02, -140673.92, -165331.41, -187500.02, -187500.02, -187500.02, -187500.02, -187500.02, -187500.02, 0.00, 0.00, 0.00
91, -148589.72, -179300.33, -187500.02, -187500.02, -187500.02, -187500.02, -187500.02, -187500.02, -140673.92, -165331.41, -187500.02, -187500.02, -187500.02, -187500.02, -187500.02, -187500.02, 0.00, -0.20, 0.95
92, -148589.72, -179300.33, -187500.02, -187500.02, -187500.02, -187500.02, -187500.02, -187500.02, -140672.22, -165331.69, -187500.02, -187500.02, -187500.02, -187500.02, -187500.02, -187500.02, 0.00, 0.00, 0.00
93, -148582.25, -179294.72, -187500.02, -187500.02, -187500.02, -187500.02, -187500.02, -187500.02, -140672.22, -165331.69, -187500.02, -187500.02, -187500.02, -187500.02, -187500.02, -187500.02, 0.00, 0.00, 0.00
94, -148582.25, -179294.72, -187500.02, -187500.02, -187500.02, -187500.02, -187500.02, -187500.02, -140663.95, -165325.80, -187500.02, -187500.02, -187500.02, -187500.02, -187500.02, -187500.02, 0.00, 0.00, 0.00
95, -148581.34, -179295.77, -187500.02, -187500.02, -187500.02, -187500.02, -187500.02, -187500.02, -140663.95, -165325.80, -187500.02, -187500.02, -187500.02, -187500.02, -187500.02, -187500.02, 0.00, 0.00, 0.00
96, -148581.34, -179295.77, -187500.02, -187500.02, -187500.02, -187500.02, -187500.02, -187500.02, -140662.11, -165325.56, -187500.02, -187500.02, -187500.02, -187500.02, -187500.02, -187500.02, 0.00, 0.00, 0.00
97, -148573.30, -179289.73, -187500.02, -187500.02, -187500.02, -187500.02, -187500.02, -187500.02, -140662.11, -165325.56, -187500.02, -187500.02, -187500.02, -187500.02, -187500.02, -187500.02, 0.00, 0.00, 0.00
98, -148573.30, -179289.73, -187500.02, -187500.02, -187500.02, -187500.02, -187500.02, -187500.02, -140653.00, -165319.33, -187500.02, -187500.02, -187500.02, -187500.02, -187500.02, -187500.02, 0.00, 0.00, 0.00
99, -148571.14, -179289.53, -187500.02, -187500.02, -187500.02, -187500.02, -187500.02, -187500.02, -140653.00, -165319.33, -187500.02, -187500.02, -187500.02, -187500.02, -187500.02, -187500.02, 0.00, 0.00, 0.00
100, -148571.14, -179289.53, -187500.02, -187500.02, -187500.02, -187500.02, -187500.02, -187500.02, -140651.16, -165318.91, -187500.02, -187500.02, -187500.02, -187500.02, -187500.02, -187500.02, 0.00, 0.00, 0.00
101, -148562.61, -179283.11, -187500.02, -187500.02, -187500.02, -187500.02, -187500.02, -187500.02, -140651.16, -165318.91, -187500.02, -187500.02, -187500.02, -187500.02, -187500.02, -187500.02, 0.00, -0.20, 0.96
102, -148562.61, -179283.11, -187500.02, -187500.02, -187500.02, -187500.02, -187500.02, -187500.02, -140641.63, -165312.27, -187500.02, -187500.02, -187500.02, -187500.02, -187500.02, -187500.02, 0.00, 0.00, 0.00
103, -148561.06, -179283.22, -187500.02, -187500.02, -187500.02, -187500.02, -187500.02, -187500.02, -140641.63, -165312.27, -187500.02, -187500.02, -187500.02, -187500.02, -187500.02, -187500.02, 0.00, 0.00, 0.00
104, -148561.06, -179283.22, -187500.02, -187500.02, -187500.02, -187500.02, -187500.02, -187500.02, -140638.95, -165310.84, -187500.02, -187500.02, -187500.02, -187500.02, -187500.02, -187500.02, 0.00, 0.00, 0.00
105, -148550.30, -179274.73, -187500.02, -187500.02, -187500.02, -187500.02, -187500.02, -187500.02, -140638.95, -165310.84, -187500.02, -187500.02, -187500.02, -187500.02, -187500.02, -187500.02, 0.00, 0.00, 0.00
106, -148550.30, -179274.73, -187500.02, -187500.02, -187500.02, -187500.02, -187500.02, -187500.02, -140625.97, -165301.09, -187500.02, -187500.02, -187500.02, -187500.02, -187500.02, -187500.02, 0.00, 0.00, 0.00
107, -148548.02, -179274.38, -187500.02, -187500.02, -187500.02, -187500.02, -187500.02, -187500.02, -140625.97, -165301.09, -187500.02, -187500.02, -187500.02, -187500.02, -187500.02, -187500.02, 0.00, 0.00, 0.00
108, -148548.02, -179274.38, -187500.02, -187500.02, -187500.02, -187500.02, -187500.02, -187500.02, -140629.13, -165305.22, -187500.02, -187500.02, -187500.02, -187500.02, -187500.02, -187500.02, 0.00, 0.00, 0.00
109, -148543.19, -179271.52, -187500.02, -187500.02, -187500.02, -187500.02, -187500.02, -187500.02, -140629.13, -165305.22, -187500.02, -187500.02, -187500.02, -187500.02, -187500.02, -187500.02, 0.00, 0.00, 0.00
110, -148543.19, -179271.52, -187500.02, -187500.02, -187500.02, -187500.02, -187500.02, -187500.02, -140615.48, -165294.91, -187500.02, -187500.02, -187500.02, -187500.02, -187500.02, -187500.02, 0.00, -0.20, 0.96
111, -148536.13, -179266.08, -187500.02, -187500.02, -187500.02, -187500.02, -187500.02, -187500.02, -140615.48, -165294.91, -187500.02, -187500.02, -187500.02, -187500.02, -187500.02, -187500.02, 0.00, 0.00, 0.00
112, -148536.13, -179266.08, -187500.02, -187500.02, -187500.02, -187500.02, -187500.02, -187500.02, -140613.70, -165294.05, -187500.02, -187500.02, -187500.02, -187500.02, -187500.02, -187500.02, 0.00, 0.00, 0.00
113, -148529.89, -179262.06, -187500.02, -187500.02, -187500.02, -187500.02, -187500.02, -187500.02, -140613.70, -165294.05, -187500.02, -187500.02, -187500.02, -187500.02, -187500.02, -187500.02, 0.00, 0.00, 0.00
114, -148529.89, -179262.06, -187500.02, -187500.02, -187500.02, -187500.02, -187500.02, -187500.02, -140605.50, -165289.13, -187500.02, -187500.02, -187500.02, -187500.02, -187500.02, -187500.02, 0.00, 0.00, 0.00
115, -148528.72, -179262.69, -187500.02, -187500.02, -187500.02, -187500.02, -187500.02, -187500.02, -140605.50, -165289.13, -187500.02, -187500.02, -187500.02, -187500.02, -187500.02, -187500.02, 0.00, 0.00, 0.00
116, -148528.72, -179262.69, -187500.02, -187500.02, -187500.02, -187500.02, -187500.02, -187500.02, -140606.58, -165291.06, -187500.02, -187500.02, -187500.02, -187500.02, -187500.02, -187500.02, 0.00, 0.00, 0.00
117, -148523.72, -179260.05, -187500.02, -187500.02, -187500.02, -187500.02, -187500.02, -187500.02, -140606.58, -165291.06, -187500.02, -187500.02, -187500.02, -187500.02, -187500.02, -187500.02, 0.00, 0.00, 0.00
118, -148523.72, -179260.05, -187500.02, -187500.02, -187500.02, -187500.02, -187500.02, -187500.02, -140594.03, -165281.84, -187500.02, -187500.02, -187500.02, -187500.02, -187500.02, -187500.02, 0.00, 0.00, 0.00
119, -148515.53, -179253.41, -187500.02, -187500.02, -187500.02, -187500.02, -187500.02, -187500.02, -140594.03, -165281.84, -187500.02, -187500.02, -187500.02, -187500.02, -187500.02, -187500.02, 0.00, 0.00, 0.00
120, -148515.53, -179253.41, -187500.02, -187500.02, -187500.02, -187500.02, -187500.02, -187500.02, -140592.47, -165281.44, -187500.02, -187500.02, -187500.02, -187500.02, -187500.02, -187500.02, 0.00, -0.20, 0.96
121, -148512.58, -179252.77, -187500.02, -187500.02, -187500.02, -187500.02, -187500.02, -187500.02, -140592.47, -165281.44, -187500.02, -187500.02, -187500.02, -187500.02, -187500.02, -187500.02, 0.00, 0.00, 0.00
122, -148512.58, -179252.77, -187500.02, -187500.02, -187500.02, -187500.02, -187500.02, -187500.02, -140581.53, -165273.69, -187500.02, -187500.02, -187500.02, -187500.02, -187500.02, -187500.02, 0.00, 0.00, 0.00
123, -148502.69, -179244.58, -187500.02, -187500.02, -187500.02, -187500.02, -187500.02, -187500.02, -140581.53, -165273.69, -187500.02, -187500.02, -187500.02, -187500.02, -187500.02, -187500.02, 0.00, 0.00, 0.00
124, -148502.69, -179244.58, -187500.02, -187500.02, -187500.02, -187500.02, -187500.02, -187500.02, -140579.17, -165272.50, -187500.02, -187500.02, -187500.02, -187500.02, -187500.02, -187500.02, 0.00, 0.00, 0.00
125, -148503.05, -179247.13, -187500.02, -187500.02, -187500.02, -187500.02, -187500.02, -187500.02, -140579.17, -165272.50, -187500.02, -187500.02, -187500.02, -187500.02, -187500.02, -187500.02, 0.00, 0.00, 0.00
126, -148503.05, -179247.13, -187500.02, -187500.02, -187500.02, -187500.02, -187500.02, -187500.02, -140572.27, -165268.50, -187500.02, -187500.02, -187500.02, -187500.02, -187500.02, -187500.02, 0.00, 0.00, 0.00
127, -148492.73, -179238.66, -187500.02, -187500.02, -187500.02, -187500.02, -187500.02, -187500.02, -140572.27, -165268.50, -187500.02, -187500.02, -187500.02, -187500.02, -187500.02, -187500.02, 0.00, 0.00, 0.00
128, -148492.73, -179238.66, -187500.02, -187500.02, -187500.02, -187500.02, -187500.02, -187500.02, -140567.33, -165265.00, -187500.02, -187500.02, -187500.02, -187500.02, -187500.02, -187500.02, 0.00, 0.00, 0.00
129, -148491.34, -179239.55, -187500.02, -187500.02, -187500.02, -187500.02, -187500.02, -187500.02, -140567.33, -165265.00, -187500.02, -187500.02, -187500.02, -187500.02, -187500.02, -187500.02, 0.00, 0.00, 0.00
130, -148491.34, -179239.55, -187500.02, -187500.02, -187500.02, -187500.02, -187500.02, -187500.02, -140557.33, -165257.70, -187500.02, -187500.02, -187500.02, -187500.02, -187500.02, -187500.02, 0.00, -0.20, 0.96
131, -148479.48, -179229.31, -187500.02, -187500.02, -187500.02, -187500.02, -187500.02, -187500.02, -140557.33, -165257.70, -187500.02, -187500.02, -187500.02, -187500.02, -187500.02, -187500.02, 0.00, 0.00, 0.00
132, -148479.48, -179229.31, -187500.02, -187500.02, -187500.02, -187500.02, -187500.02, -187500.02, -140554.11, -165256.28, -187500.02, -187500.02, -187500.02, -187500.02, -187500.02, -187500.02, 0.00, 0.00, 0.00
133, -148480.06, -179232.08, -187500.02, -187500.02, -187500.02, -187500.02, -187500.02, -187500.02, -140554.11, -165256.28, -187500.02, -187500.02, -187500.02, -187500.02, -187500.02, -187500.02, 0.00, 0.00, 0.00
134, -148480.06, -179232.08, -187500.02, -187500.02, -187500.02, -187500.02, -187500.02, -187500.02, -140546.56, -165251.16, -187500.02, -187500.02, -187500.02, -187500.02, -187500.02, -187500.02, 0.00, 0.00, 0.00
135, -148469.25, -179223.20, -187500.02, -187500.02, -187500.02, -187500.02, -187500.02, -187500.02, -140546.56, -165251.16, -187500.02, -187500.02, -187500.02, -187500.02, -187500.02, -187500.02, 0.00, 0.00, 0.00
136, -148469.25, -179223.20, -187500.02, -187500.02, -187500.02, -187500.02, -187500.02, -187500.02, -140541.03, -165247.61, -187500.02, -187500.02, -187500.02, -187500.02, -187500.02, -187500.02, 0.00, 0.00, 0.00
137, -148469.92, -179225.83, -187500.02, -187500.02, -187500.02, -187500.02, -187500.02, -187500.02, -140541.03, -165247.61, -187500.02, -187500.02, -187500.02, -187500.02, -187500.02, -187500.02, 0.00, 0.00, 0.00
138, -148469.92, -179225.83, -187500.02, -187500.02, -187500.02, -187500.02, -187500.02, -187500.02, -140537.97, -165246.83, -187500.02, -187500.02, -187500.02, -187500.02, -187500.02, -187500.02, 0.00, 0.00, 0.00
139, -148460.19, -179218.05, -187500.02, -187500.02, -187500.02, -187500.02, -187500.02, -187500.02, -140537.97, -165246.83, -187500.02, -187500.02, -187500.02, -187500.02, -187500.02, -187500.02, 0.00, 0.00, 0.00
140, -148460.19, -179218.05, -187500.02, -187500.02, -187500.02, -187500.02, -187500.02, -187500.02, -140529.48, -165240.61, -187500.02, -187500.02, -187500.02, -187500.02, -187500.02, -187500.02, 0.00, -0.21, 0.96
141, -148458.67, -179218.69, -187500.02, -187500.02, -187500.02, -187500.02, -187500.02, -187500.02, -140529.48, -165240.61, -187500.02, -187500.02, -187500.02, -187500.02, -187500.02, -187500.02, 0.00, 0.00, 0.00
142, -148458.67, -179218.69, -187500.02, -187500.02, -187500.02, -187500.02, -187500.02, -187500.02, -140524.88, -165237.70, -187500.02, -187500.02, -187500.02, -187500.02, -187500.02, -187500.02, 0.00, 0.00, 0.00
143, -148450.05, -179211.97, -187500.02, -187500.02, -187500.02, -187500.02, -187500.02, -187500.02, -140524.88, -165237.70, -187500.02, -187500.02, -187500.02, -187500.02, -187500.02, -187500.02, 0.00, 0.00, 0.00
144, -148450.05, -179211.97, -187500.02, -187500.02, -187500.02, -187500.02, -187500.02, -187500.02, -140520.55, -165236.05, -187500.02, -187500.02, -187500.02, -187500.02, -187500.02, -187500.02, 0.00, 0.00, 0.00
145, -148451.25, -179215.16, -187500.02, -187500.02, -187500.02, -187500.02, -187500.02, -187500.02, -140520.55, -165236.05, -187500.02, -187500.02, -187500.02, -187500.02, -187500.02, -187500.02, 0.00, 0.00, 0.00
146, -148451.25, -179215.16, -187500.02, -187500.02, -187500.02, -187500.02, -187500.02, -187500.02, -140516.00, -165233.00, -187500.02, -187500.02, -187500.02, -187500.02, -187500.02, -187500.02, 0.00, 0.00, 0.00
147, -148440.34, -179206.33, -187500.02, -187500.02, -187500.02, -187500.02, -187500.02, -187500.02, -140516.00, -165233.00, -187500.02, -187500.02, -187500.02, -187500.02, -187500.02, -187500.02, 0.00, 0.00, 0.00
148, -148440.34, -179206.33, -187500.02, -187500.02, -187500.02, -187500.02, -187500.02, -187500.02, -140506.38, -165226.33, -187500.02, -187500.02, -187500.02, -187500.02, -187500.02, -187500.02, 0.00, 0.00, 0.00
149, -148438.28, -179205.97, -187500.02, -187500.02, -187500.02, -187500.02, -187500.02, -187500.02, -140506.38, -165226.33, -187500.02, -187500.02, -187500.02, -187500.02, -187500.02, -187500.02, 0.00, 0.00, 0.00
150, -148438.28, -179205.97, -187500.02, -187500.02, -187500.02, -187500.02, -187500.02, -187500.02, -140502.92, -165224.09, -187500.02, -187500.02, -187500.02, -187500.02, -187500.02, -187500.02, 0.00, -0.20, 0.96
151, -148429.56, -179199.56, -187500.02, -187500.02, -187500.02, -187500.02, -187500.02, -187500.02, -140502.92, -165224.09, -187500.02, -187500.02, -187500.02, -187500.02, -187500.02, -187500.02, 0.00, 0.00, 0.00
152, -148429.56, -179199.56, -187500.02, -187500.02, -187500.02, -187500.02, -187500.02, -187500.02, -140496.28, -165220.56, -187500.02, -187500.02, -187500.02, -187500.02, -187500.02, -187500.02, 0.00, 0.00, 0.00
153, -148430.73, -179202.58, -187500.02, -187500.02, -187500.02, -187500.02, -187500.02, -187500.02, -140496.28, -165220.56, -187500.02, -187500.02, -187500.02, -187500.02, -187500.02, -187500.02, 0.00, 0.00, 0.00
154, -148430.73, -179202.58, -187500.02, -187500.02, -187500.02, -187500.02, -187500.02, -187500.02, -140497.09, -165222.50, -187500.02, -187500.02, -187500.02, -187500.02, -187500.02, -187500.02, 0.00, 0.00, 0.00
155, -148423.00, -179196.97, -187500.02, -187500.02, -187500.02, -187500.02, -187500.02, -187500.02, -140497.09, -165222.50, -187500.02, -187500.02, -187500.02, -187500.02, -187500.02, -187500.02, 0.00, 0.00, 0.00
156, -148423.00, -179196.97, -187500.02, -187500.02, -187500.02, -187500.02, -187500.02, -187500.02, -140483.56, -165212.33, -187500.02, -187500.02, -187500.02, -187500.02, -187500.02, -187500.02, 0.00, 0.00, 0.00
157, -148419.36, -179195.19, -187500.02, -187500.02, -187500.02, -187500.02, -187500.02, -187500.02, -140483.56, -165212.33, -187500.02, -187500.02, -187500.02, -187500.02, -187500.02, -187500.02, 0.00, 0.00, 0.00
158, -148419.36, -179195.19, -187500.02, -187500.02, -187500.02, -187500.02, -187500.02, -187500.02, -140486.14, -165215.73, -187500.02, -187500.02, -187500.02, -187500.02, -187500.02, -187500.02, 0.00, 0.00, 0.00
159, -148414.45, -179192.41, -187500.02, -187500.02, -187500.02, -187500.02, -187500.02, -187500.02, -140486.14, -165215.73, -187500.02, -187500.02, -187500.02, -187500.02, -187500.02, -187500.02, 0.00, 0.00, 0.00
160, -148414.45, -179192.41, -187500.02, -187500.02, -187500.02, -187500.02, -187500.02, -187500.02, -140473.22, -165206.16, -187500.02, -187500.02, -187500.02, -187500.02, -187500.02, -187500.02, 0.00, -0.20, 0.95
161, -148406.73, -179186.28, -187500.02, -187500.02, -187500.02, -187500.02, -187500.02, -187500.02, -140473.22, -165206.16, -187500.02, -187500.02, -187500.02, -187500.02, -187500.02, -187500.02, 0.00, 0.00, 0.00
162, -148406.73, -179186.28, -187500.02, -187500.02, -187500.02, -187500.02, -187500.02, -187500.02, -140472.08, -165206.05, -187500.02, -187500.02, -187500.02, -187500.02, -187500.02, -187500.02, 0.00, 0.00, 0.00
163, -148402.02, -179183.80, -187500.02, -187500.02, -187500.02, -187500.02, -187500.02, -187500.02, -140472.08, -165206.05, -187500.02, -187500.02, -187500.02, -187500.02, -187500.02, -187500.02, 0.00, 0.00, 0.00
164, -148402.02, -179183.80, -187500.02, -187500.02, -187500.02, -187500.02, -187500.02, -187500.02, -140459.86, -165197.06, -187500.02, -187500.02, -187500.02, -187500.02, -187500.02, -187500.02, 0.00, 0.00, 0.00
165, -148395.44, -179179.02, -187500.02, -187500.02, -187500.02, -187500.02, -187500.02, -187500.02, -140459.86, -165197.06, -187500.02, -187500.02, -187500.02, -187500.02, -187500.02, -187500.02, 0.00, 0.00, 0.00
166, -148395.44, -179179.02, -187500.02, -187500.02, -187500.02, -187500.02, -187500.02, -187500.02, -140459.00, -165197.09, -187500.02, -187500.02, -187500.02, -187500.02, -187500.02, -187500.02, 0.00, 0.00, 0.00
167, -148391.89, -179177.64, -187500.02, -187500.02, -187500.02, -187500.02, -187500.02, -187500.02, -140459.00, -165197.09, -187500.02, -187500.02, -187500.02, -187500.02, -187500.02, -187500.02, 0.00, 0.00, 0.00
168, -148391.89, -179177.64, -187500.02, -187500.02, -187500.02, -187500.02, -187500.02, -187500.02, -140449.19, -165190.58, -187500.02, -187500.02, -187500.02, -187500.02, -187500.02, -187500.02, 0.00, 0.00, 0.00
169, -148384.75, -179172.19, -187500.02, -187500.02, -187500.02, -187500.02, -187500.02, -187500.02, -140449.19, -165190.58, -187500.02, -187500.02, -187500.02, -187500.02, -187500.02, -187500.02, 0.00, 0.00, 0.00
170, -148384.75, -179172.19, -187500.02, -187500.02, -187500.02, -187500.02, -187500.02, -187500.02, -140449.69, -165192.13, -187500.02, -187500.02, -187500.02, -187500.02, -187500.02, -187500.02, 0.00, -0.20, 0.95
171, -148385.92, -179175.67, -187500.02, -187500.02, -187500.02, -187500.02, -187500.02, -187500.02, -140449.69, -165192.13, -187500.02, -187500.02, -187500.02, -187500.02, -187500.02, -187500.02, 0.00, 0.00, 0.00
172, -148385.92, -179175.67, -187500.02, -187500.02, -187500.02, -187500.02, -187500.02, -187500.02, -140440.75, -165186.50, -187500.02, -187500.02, -187500.02, -187500.02, -187500.02, -187500.02, 0.00, 0.00, 0.00
173, -148375.59, -179166.92, -187500.02, -187500.02, -187500.02, -187500.02, -187500.02, -187500.02, -140440.75, -165186.50, -187500.02, -187500.02, -187500.02, -187500.02, -187500.02, -187500.02, 0.00, 0.00, 0.00
174, -148375.59, -179166.92, -187500.02, -187500.02, -187500.02, -187500.02, -187500.02, -187500.02, -140438.73, -165185.67, -187500.02, -187500.02, -187500.02, -187500.02, -187500.02, -187500.02, 0.00, 0.00, 0.00
175, -148376.47, -179169.97, -187500.02, -187500.02, -187500.02, -187500.02, -187500.02, -187500.02, -140438.73, -165185.67, -187500.02, -187500.02, -187500.02, -187500.02, -187500.02, -187500.02, 0.00, 0.00, 0.00
176, -148376.47, -179169.97, -187500.02, -187500.02, -187500.02, -187500.02, -187500.02, -187500.02, -140430.42, -165180.28, -187500.02, -187500.02, -187500.02, -187500.02, -187500.02, -187500.02, 0.00, 0.00, 0.00
177, -148366.67, -179161.92, -187500.02, -187500.02, -187500.02, -187500.02, -187500.02, -187500.02, -140430.42, -165180.28, -187500.02, -187500.02, -187500.02, -187500.02, -187500.02, -187500.02, 0.00, 0.00, 0.00
178, -148366.67, -179161.92, -187500.02, -187500.02, -187500.02, -187500.02, -187500.02, -187500.02, -140427.25, -165178.61, -187500.02, -187500.02, -187500.02, -187500.02, -187500.02, -187500.02, 0.00, 0.00, 0.00
179, -148364.03, -179161.41, -187500.02, -187500.02, -187500.02, -187500.02, -187500.02, -187500.02, -140427.25, -165178.61, -187500.02, -187500.02, -187500.02, -187500.02, -187500.02, -187500.02, 0.00, 0.00, 0.00
180, -148364.03, -179161.41, -187500.02, -187500.02, -187500.02, -187500.02, -187500.02, -187500.02, -140415.83, -165169.78, -187500.02, -187500.02, -187500.02, -187500.02, -187500.02, -187500.02, 0.00, -0.20, 0.96
181, -148351.31, -179150.52, -187500.02, -187500.02, -187500.02, -187500.02, -187500.02, -187500.02, -140415.83, -165169.78, -187500.02, -187500.02, -187500.02, -187500.02, -187500.02, -187500.02, 0.00, 0.00, 0.00
182, -148351.31, -179150.52, -187500.02, -187500.02, -187500.02, -187500.02, -187500.02, -187500.02, -140411.95, -165167.67, -187500.02, -187500.02, -187500.02, -187500.02, -187500.02, -187500.02, 0.00, 0.00, 0.00
183, -148355.67, -179156.88, -187500.02, -187500.02, -187500.02, -187500.02, -187500.02, -187500.02, -140411.95, -165167.67, -187500.02, -187500.02, -187500.02, -187500.02, -187500.02, -187500.02, 0.00, 0.00, 0.00
184, -148355.67, -179156.88, -187500.02, -187500.02, -187500.02, -187500.02, -187500.02, -187500.02, -140409.56, -165167.47, -187500.02, -187500.02, -187500.02, -187500.02, -187500.02, -187500.02, 0.00, 0.00, 0.00
185, -148346.69, -179149.92, -187500.02, -187500.02, -187500.02, -187500.02, -187500.02, -187500.02, -140409.56, -165167.47, -187500.02, -187500.02, -187500.02, -187500.02, -187500.02, -187500.02, 0.00, 0.00, 0.00
186, -148346.69, -179149.92, -187500.02, -187500.02, -187500.02, -187500.02, -187500.02, -187500.02, -140404.94, -165165.03, -187500.02, -187500.02, -187500.02, -187500.02, -187500.02, -187500.02, 0.00, 0.00, 0.00
187, -148347.11, -179152.48, -187500.02, -187500.02, -187500.02, -187500.02, -187500.02, -187500.02, -140404.94, -165165.03, -187500.02, -187500.02, -187500.02, -187500.02, -187500.02, -187500.02, 0.00, 0.00, 0.00
188, -148347.11, -179152.48, -187500.02, -187500.02, -187500.02, -187500.02, -187500.02, -187500.02, -140399.03, -165161.17, -187500.02, -187500.02, -187500.02, -187500.02, -187500.02, -187500.02, 0.00, 0.00, 0.00
189, -148334.91, -179142.14, -187500.02, -187500.02, -187500.02, -187500.02, -187500.02, -187500.02, -140399.03, -165161.17, -187500.02, -187500.02, -187500.02, -187500.02, -187500.02, -187500.02, 0.00, 0.00, 0.00
190, -148334.91, -179142.14, -187500.02, -187500.02, -187500.02, -187500.02, -187500.02, -187500.02, -140388.73, -165153.17, -187500.02, -187500.02, -187500.02, -187500.02, -187500.02, -187500.02, 0.00, -0.20, 0.96
191, -148331.30, -179140.38, -187500.02, -187500.02, -187500.02, -187500.02, -187500.02, -187500.02, -140388.73, -165153.17, -187500.02, -187500.02, -187500.02, -187500.02, -187500.02, -187500.02, 0.00, 0.00, 0.00
192, -148331.30, -179140.38, -187500.02, -187500.02, -187500.02, -187500.02, -187500.02, -187500.02, -140384.11, -165150.28, -187500.02, -187500.02, -187500.02, -187500.02, -187500.02, -187500.02, 0.00, 0.00, 0.00
193, -148323.31, -179134.50, -187500.02, -187500.02, -187500.02, -187500.02, -187500.02, -187500.02, -140384.11, -165150.28, -187500.02, -187500.02, -187500.02, -187500.02, -187500.02, -187500.02, 0.00, 0.00, 0.00
194, -148323.31, -179134.50, -187500.02, -187500.02, -187500.02, -187500.02, -187500.02, -187500.02, -140378.72, -165147.77, -187500.02, -187500.02, -187500.02, -187500.02, -187500.02, -187500.02, 0.00, 0.00, 0.00
195, -148323.80, -179136.89, -187500.02, -187500.02, -187500.02, -187500.02, -187500.02, -187500.02, -140378.72, -165147.77, -187500.02, -187500.02, -187500.02, -187500.02, -187500.02, -187500.02, 0.00, 0.00, 0.00
196, -148323.80, -179136.89, -187500.02, -187500.02, -187500.02, -187500.02, -187500.02, -187500.02, -140374.78, -165145.17, -187500.02, -187500.02, -187500.02, -187500.02, -187500.02, -187500.02, 0.00, 0.00, 0.00
197, -148312.58, -179127.88, -187500.02, -187500.02, -187500.02, -187500.02, -187500.02, -187500.02, -140374.78, -165145.17, -187500.02, -187500.02, -187500.02, -187500.02, -187500.02, -187500.02, 0.00, 0.00, 0.00
198, -148312.58, -179127.88, -187500.02, -187500.02, -187500.02, -187500.02, -187500.02, -187500.02, -140364.75, -165138.03, -187500.02, -187500.02, -187500.02, -187500.02, -187500.02, -187500.02, 0.00, 0.00, 0.00
199, -148312.42, -179129.44, -187500.02, -187500.02, -187500.02, -187500.02, -187500.02, -187500.02, -140364.75, -165138.03, -187500.02, -187500.02, -187500.02, -187500.02, -187500.02, -187500.02, 0.00, 0.00, 0.00
200, -148312.42, -179129.44, -187500.02, -187500.02, -187500.02, -187500.02, -187500.02, -187500.02, -140364.69, -165139.27, -187500.02, -187500.02, -187500.02, -187500.02, -187500.02, -187500.02, 0.00, -0.20, 0.95
201, -148304.84, -179123.92, -187500.02, -187500.02, -187500.02, -187500.02, -187500.02, -187500.02, -140364.69, -165139.27, -187500.02, -187500.02, -187500.02, -187500.02, -187500.02, -187500.02, 0.00, 0.00, 0.00
202, -148304.84, -179123.92, -187500.02, -187500.02, -187500.02, -187500.02, -187500.02, -187500.02, -140356.13, -165133.94, -187500.02, -187500.02, -187500.02, -187500.02, -187500.02, -187500.02, 0.00, 0.00, 0.00
203, -148305.11, -179125.95, -187500.02, -187500.02, -187500.02, -187500.02, -187500.02, -187500.02, -140356.13, -165133.94, -187500.02, -187500.02, -187500.02, -187500.02, -187500.02, -187500.02, 0.00, 0.00, 0.00
204, -148305.11, -179125.95, -187500.02, -187500.02, -187500.02, -187500.02, -187500.02, -187500.02, -140356.88, -165135.83, -187500.02, -187500.02, -187500.02, -187500.02, -187500.02, -187500.02, 0.00, 0.00, 0.00
205, -148297.73, -179120.86, -187500.02, -187500.02, -187500.02, -187500.02, -187500.02, -187500.02, -140356.88, -165135.83, -187500.02, -187500.02, -187500.02, -187500.02, -187500.02, -187500.02, 0.00, 0.00, 0.00
206, -148297.73, -179120.86, -187500.02, -187500.02, -187500.02, -187500.02, -187500.02, -187500.02, -140345.44, -165127.58, -187500.02, -187500.02, -187500.02, -187500.02, -187500.02, -187500.02, 0.00, 0.00, 0.00
207, -148295.06, -179119.83, -187500.02, -187500.02, -187500.02, -187500.02, -187500.02, -187500.02, -140345.44, -165127.58, -187500.02, -187500.02, -187500.02, -187500.02, -187500.02, -187500.02, 0.00, 0.00, 0.00
208, -148295.06, -179119.83, -187500.02, -187500.02, -187500.02, -187500.02, -187500.02, -187500.02, -140346.89, -165129.97, -187500.02, -187500.02, -187500.02, -187500.02, -187500.02, -187500.02, 0.00, 0.00, 0.00
209, -148288.47, -179115.52, -187500.02, -187500.02, -187500.02, -187500.02, -187500.02, -187500.02, -140346.89, -165129.97, -187500.02, -187500.02, -187500.02, -187500.02, -187500.02, -187500.02, 0.00, 0.00, 0.00
210, -148288.47, -179115.52, -187500.02, -187500.02, -187500.02, -187500.02, -187500.02, -187500.02, -140333.30, -165119.81, -187500.02, -187500.02, -187500.02, -187500.02, -187500.02, -187500.02, 0.00, -0.20, 0.95
211, -148282.19, -179110.95, -187500.02, -187500.02, -187500.02, -187500.02, -187500.02, -187500.02, -140333.30, -165119.81, -187500.02, -187500.02, -187500.02, -187500.02, -187500.02, -187500.02, 0.00, 0.00, 0.00
212, -148282.19, -179110.95, -187500.02, -187500.02, -187500.02, -187500.02, -187500.02, -187500.02, -140333.64, -165121.05, -187500.02, -187500.02, -187500.02, -187500.02, -187500.02, -187500.02, 0.00, 0.00, 0.00
213, -148278.83, -179109.81, -187500.02, -187500.02, -187500.02, -187500.02, -187500.02, -187500.02, -140333.64, -165121.05, -187500.02, -187500.02, -187500.02, -187500.02, -187500.02, -187500.02, 0.00, 0.00, 0.00
214, -148278.83, -179109.81, -187500.02, -187500.02, -187500.02, -187500.02, -187500.02, -187500.02, -140322.86, -165113.58, -187500.02, -187500.02, -187500.02, -187500.02, -187500.02, -187500.02, 0.00, 0.00, 0.00
215, -148271.61, -179104.33, -187500.02, -187500.02, -187500.02, -187500.02, -187500.02, -187500.02, -140322.86, -165113.58, -187500.02, -187500.02, -187500.02, -187500.02, -187500.02, -187500.02, 0.00, 0.00, 0.00
216, -148271.61, -179104.33, -187500.02, -187500.02, -187500.02, -187500.02, -187500.02, -187500.02, -140320.83, -165112.48, -187500.02, -187500.02, -187500.02, -187500.02, -187500.02, -187500.02, 0.00, 0.00, 0.00
217, -148267.70, -179102.67, -187500.02, -187500.02, -187500.02, -187500.02, -187500.02, -187500.02, -140320.83, -165112.48, -187500.02, -187500.02, -187500.02, -187500.02, -187500.02, -187500.02, 0.00, 0.00, 0.00
218, -148267.70, -179102.67, -187500.02, -187500.02, -187500.02, -187500.02, -187500.02, -187500.02, -140312.11, -165106.94, -187500.02, -187500.02, -187500.02, -187500.02, -187500.02, -187500.02, 0.00, 0.00, 0.00
219, -148261.47, -179098.23, -187500.02, -187500.02, -187500.02, -187500.02, -187500.02, -187500.02, -140312.11, -165106.94, -187500.02, -187500.02, -187500.02, -187500.02, -187500.02, -187500.02, 0.00, 0.00, 0.00
220, -148261.47, -179098.23, -187500.02, -187500.02, -187500.02, -187500.02, -187500.02, -187500.02, -140311.03, -165106.97, -187500.02, -187500.02, -187500.02, -187500.02, -187500.02, -187500.02, 0.00, -0.20, 0.95
221, -148261.19, -179100.14, -187500.02, -187500.02, -187500.02, -187500.02, -187500.02, -187500.02, -140311.03, -165106.97, -187500.02, -187500.02, -187500.02, -187500.02, -187500.02, -187500.02, 0.00, 0.00, 0.00
222, -148261.19, -179100.14, -187500.02, -187500.02, -187500.02, -187500.02, -187500.02, -187500.02, -140303.53, -165102.58, -187500.02, -187500.02, -187500.02, -187500.02, -187500.02, -187500.02, 0.00, 0.00, 0.00
223, -148250.95, -179091.63, -187500.02, -187500.02, -187500.02, -187500.02, -187500.02, -187500.02, -140303.53, -165102.58, -187500.02, -187500.02, -187500.02, -187500.02, -187500.02, -187500.02, 0.00, 0.00, 0.00
224, -148250.95, -179091.63, -187500.02, -187500.02, -187500.02, -187500.02, -187500.02, -187500.02, -140297.02, -165097.42, -187500.02, -187500.02, -187500.02, -187500.02, -187500.02, -187500.02, 0.00, 0.00, 0.00
225, -148248.36, -179091.20, -187500.02, -187500.02, -187500.02, -187500.02, -187500.02, -187500.02, -140297.02, -165097.42, -187500.02, -187500.02, -187500.02, -187500.02, -187500.02, -187500.02, 0.00, 0.00, 0.00
226, -148248.36, -179091.20, -187500.02, -187500.02, -187500.02, -187500.02, -187500.02, -187500.02, -140289.59, -165092.91, -187500.02, -187500.02, -187500.02, -187500.02, -187500.02, -187500.02, 0.00, 0.00, 0.00
227, -148238.84, -179083.36, -187500.02, -187500.02, -187500.02, -187500.02, -187500.02, -187500.02, -140289.59, -165092.91, -187500.02, -187500.02, -187500.02, -187500.02, -187500.02, -187500.02, 0.00, 0.00, 0.00
228, -148238.84, -179083.36, -187500.02, -187500.02, -187500.02, -187500.02, -187500.02, -187500.02, -140284.75, -165089.64, -187500.02, -187500.02, -187500.02, -187500.02, -187500.02, -187500.02, 0.00, 0.00, 0.00
229, -148238.70, -179085.28, -187500.02, -187500.02, -187500.02, -187500.02, -187500.02, -187500.02, -140284.75, -165089.64, -187500.02, -187500.02, -187500.02, -187500.02, -187500.02, -187500.02, 0.00, 0.00, 0.00
230, -148238.70, -179085.28, -187500.02, -187500.02, -187500.02, -187500.02, -187500.02, -187500.02, -140280.55, -165087.86, -187500.02, -187500.02, -187500.02, -187500.02, -187500.02, -187500.02, 0.00, -0.20, 0.96
231, -148230.78, -179079.22, -187500.02, -187500.02, -187500.02, -187500.02, -187500.02, -187500.02, -140280.55, -165087.86, -187500.02, -187500.02, -187500.02, -187500.02, -187500.02, -187500.02, 0.00, 0.00, 0.00
232, -148230.78, -179079.22, -187500.02, -187500.02, -187500.02, -187500.02, -187500.02, -187500.02, -140275.83, -165085.06, -187500.02, -187500.02, -187500.02, -187500.02, -187500.02, -187500.02, 0.00, 0.00, 0.00
233, -148231.33, -179081.86, -187500.02, -187500.02, -187500.02, -187500.02, -187500.02, -187500.02, -140275.83, -165085.06, -187500.02, -187500.02, -187500.02, -187500.02, -187500.02, -187500.02, 0.00, 0.00, 0.00
234, -148231.33, -179081.86, -187500.02, -187500.02, -187500.02, -187500.02, -187500.02, -187500.02, -140270.47, -165082.05, -187500.02, -187500.02, -187500.02, -187500.02, -187500.02, -187500.02, 0.00, 0.00, 0.00
235, -148218.95, -179071.53, -187500.02, -187500.02, -187500.02, -187500.02, -187500.02, -187500.02, -140270.47, -165082.05, -187500.02, -187500.02, -187500.02, -187500.02, -187500.02, -187500.02, 0.00, 0.00, 0.00
236, -148218.95, -179071.53, -187500.02, -187500.02, -187500.02, -187500.02, -187500.02, -187500.02, -140261.27, -165075.00, -187500.02, -187500.02, -187500.02, -187500.02, -187500.02, -187500.02, 0.00, 0.00, 0.00
237, -148218.81, -179073.45, -187500.02, -187500.02, -187500.02, -187500.02, -187500.02, -187500.02, -140261.27, -165075.00, -187500.02, -187500.02, -187500.02, -187500.02, -187500.02, -187500.02, 0.00, 0.00, 0.00
238, -148218.81, -179073.45, -187500.02, -187500.02, -187500.02, -187500.02, -187500.02, -187500.02, -140259.77, -165075.45, -187500.02, -187500.02, -187500.02, -187500.02, -187500.02, -187500.02, 0.00, 0.00, 0.00
239, -148210.72, -179067.27, -187500.02, -187500.02, -187500.02, -187500.02, -187500.02, -187500.02, -140259.77, -165075.45, -187500.02, -187500.02, -187500.02, -187500.02, -187500.02, -187500.02, 0.00, 0.00, 0.00
240, -148210.72, -179067.27, -187500.02, -187500.02, -187500.02, -187500.02, -187500.02, -187500.02, -140249.41, -165067.63, -187500.02, -187500.02, -187500.02, -187500.02, -187500.02, -187500.02, 0.01, -0.20, 0.96
241, -148206.83, -179065.27, -187500.02, -187500.02, -187500.02, -187500.02, -187500.02, -187500.02, -140249.41, -165067.63, -187500.02, -187500.02, -187500.02, -187500.02, -187500.02, -187500.02, 0.00, 0.00, 0.00
242, -148206.83, -179065.27, -187500.02, -187500.02, -187500.02, -187500.02, -187500.02, -187500.02, -140246.70, -165066.47, -187500.02, -187500.02, -187500.02, -187500.02, -187500.02, -187500.02, 0.00, 0.00, 0.00
243, -148198.41, -179058.92, -187500.02, -187500.02, -187500.02, -187500.02, -187500.02, -187500.02, -140246.70, -165066.47, -187500.02, -187500.02, -187500.02, -187500.02, -187500.02, -187500.02, 0.00, 0.00, 0.00
244, -148198.41, -179058.92, -187500.02, -187500.02, -187500.02, -187500.02, -187500.02, -187500.02, -140237.30, -165059.92, -187500.02, -187500.02, -187500.02, -187500.02, -187500.02, -187500.02, 0.00, 0.00, 0.00
245, -148197.09, -179059.53, -187500.02, -187500.02, -187500.02, -187500.02, -187500.02, -187500.02, -140237.30, -165059.92, -187500.02, -187500.02, -187500.02, -187500.02, -187500.02, -187500.02, 0.00, 0.00, 0.00
246, -148197.09, -179059.53, -187500.02, -187500.02, -187500.02, -187500.02, -187500.02, -187500.02, -140236.41, -165060.23, -187500.02, -187500.02, -187500.02, -187500.02, -187500.02, -187500.02, 0.00, 0.00, 0.00
247, -148188.73, -179053.11, -187500.02, -187500.02, -187500.02, -187500.02, -187500.02, -187500.02, -140236.41, -165060.23, -187500.02, -187500.02, -187500.02, -187500.02, -187500.02, -187500.02, 0.00, 0.00, 0.00
248, -148188.73, -179053.11, -187500.02, -187500.02, -187500.02, -187500.02, -187500.02, -187500.02, -140223.80, -165050.78, -187500.02, -187500.02, -187500.02, -187500.02, -187500.02, -187500.02, 0.00, 0.00, 0.00
249, -148182.92, -179049.16, -187500.02, -187500.02, -187500.02, -187500.02, -187500.02, -187500.02, -140223.80, -165050.78, -187500.02, -187500.02, -187500.02, -187500.02, -187500.02, -187500.02, 0.00, 0.00, 0.00
250, -148182.92, -179049.16, -187500.02, -187500.02, -187500.02, -187500.02, -187500.02, -187500.02, -140221.52, -165049.56, -187500.02, -187500.02, -187500.02, -187500.02, -187500.02, -187500.02, 0.00, -0.20, 0.95
251, -148175.81, -179044.16, -187500.02, -187500.02, -187500.02, -187500.02, -187500.02, -187500.02, -140221.52, -165049.56, -187500.02, -187500.02, -187500.02, -187500.02, -187500.02, -187500.02, 0.00, 0.00, 0.00
252, -148175.81, -179044.16, -187500.02, -187500.02, -187500.02, -187500.02, -187500.02, -187500.02, -140211.48, -165042.70, -187500.02, -187500.02, -187500.02, -187500.02, -187500.02, -187500.02, 0.00, 0.00, 0.00
253, -148174.56, -179044.75, -187500.02, -187500.02, -187500.02, -187500.02, -187500.02, -187500.02, -140211.48, -165042.70, -187500.02, -187500.02, -187500.02, -187500.02, -187500.02, -187500.02, 0.00, 0.00, 0.00
254, -148174.56, -179044.75, -187500.02, -187500.02, -187500.02, -187500.02, -187500.02, -187500.02, -140214.64, -165046.86, -187500.02, -187500.02, -187500.02, -187500.02, -187500.02, -187500.02, 0.00, 0.00, 0.00
255, -148170.88, -179043.13, -187500.02, -187500.02, -187500.02, -187500.02, -187500.02, -187500.02, -140214.64, -165046.86, -187500.02, -187500.02, -187500.02, -187500.02, -187500.02, -187500.02, 0.00, 0.00, 0.00
0, -148170.88, -179043.13, -187500.02, -187500.02, -187500.02, -187500.02, -187500.02, -187500.02, -140204.00, -165039.52, -187500.02, -187500.02, -187500.02, -187500.02, -187500.02, -187500.02, 0.00, 0.00, 0.00
1, -148165.97, -179040.03, -187500.02, -187500.02, -187500.02, -187500.02, -187500.02, -187500.02, -140204.00, -165039.52, -187500.02, -187500.02, -187500.02, -187500.02, -187500.02, -187500.02, 0.00, 0.00, 0.00
2, -148165.97, -179040.03, -187500.02, -187500.02, -187500.02, -187500.02, -187500.02, -187500.02, -140204.22, -165040.89, -187500.02, -187500.02, -187500.02, -187500.02, -187500.02, -187500.02, 0.00, 0.00, 0.00
3, -148160.50, -179036.80, -187500.02, -187500.02, -187500.02, -187500.02, -187500.02, -187500.02, -140204.22, -165040.89, -187500.02, -187500.02, -187500.02, -187500.02, -187500.02, -187500.02, 0.00, 0.00, 0.00
4, -148160.50, -179036.80, -187500.02, -187500.02, -187500.02, -187500.02, -187500.02, -187500.02, -140190.98, -165031.02, -187500.02, -187500.02, -187500.02, -187500.02, -187500.02, -187500.02, 0.00, -0.20, 0.95
5, -148154.53, -179032.38, -187500.02, -187500.02, -187500.02, -187500.02, -187500.02, -187500.02, -140190.98, -165031.02, -187500.02, -187500.02, -187500.02, -187500.02, -187500.02, -187500.02, 0.00, 0.00, 0.00
6, -148154.53, -179032.38, -187500.02, -187500.02, -187500.02, -187500.02, -187500.02, -187500.02, -140194.31, -165035.13, -187500.02, -187500.02, -187500.02, -187500.02, -187500.02, -187500.02, 0.00, 0.00, 0.00
7, -148154.52, -179034.58, -187500.02, -187500.02, -187500.02, -187500.02, -187500.02, -187500.02, -140194.31, -165035.13, -187500.02, -187500.02, -187500.02, -187500.02, -187500.02, -187500.02, 0.00, 0.00, 0.00
8, -148154.52, -179034.58, -187500.02, -187500.02, -187500.02, -187500.02, -187500.02, -187500.02, -140183.61, -165027.75, -187500.02, -187500.02, -187500.02, -187500.02, -187500.02, -187500.02, 0.00, 0.00, 0.00
9, -148145.91, -179027.83, -187500.02, -187500.02, -187500.02, -187500.02, -187500.02, -187500.02, -140183.61, -165027.75, -187500.02, -187500.02, -187500.02, -187500.02, -187500.02, -187500.02, 0.00, 0.00, 0.00
10, -148145.91, -179027.83, -187500.02, -187500.02, -187500.02, -187500.02, -187500.02, -187500.02, -140183.72, -165028.94, -187500.02, -187500.02, -187500.02, -187500.02, -187500.02, -187500.02, 0.00, 0.00, 0.00
11, -148145.81, -179029.94, -187500.02, -187500.02, -187500.02, -187500.02, -187500.02, -187500.02, -140183.72, -165028.94, -187500.02, -187500.02, -187500.02, -187500.02, -187500.02, -187500.02, 0.00, 0.00, 0.00
12, -148145.81, -179029.94, -187500.02, -187500.02, -187500.02, -187500.02, -187500.02, -187500.02, -140172.39, -165020.86, -187500.02, -187500.02, -187500.02, -187500.02, -187500.02, -187500.02, 0.00, 0.00, 0.00
13, -148133.83, -179019.66, -187500.02, -187500.02, -187500.02, -187500.02, -187500.02, -187500.02, -140172.39, -165020.86, -187500.02, -187500.02, -187500.02, -187500.02, -187500.02, -187500.02, 0.00, 0.00, 0.00
14, -148133.83, -179019.66, -187500.02, -187500.02, -187500.02, -187500.02, -187500.02, -187500.02, -140169.38, -165019.08, -187500.02, -187500.02, -187500.02, -187500.02, -187500.02, -187500.02, 0.01, -0.20, 0.96
15, -148133.98, -179022.02, -187500.02, -187500.02, -187500.02, -187500.02, -187500.02, -187500.02, -140169.38, -165019.08, -187500.02, -187500.02, -187500.02, -187500.02, -187500.02, -187500.02, 0.00, 0.00, 0.00
16, -148133.98, -179022.02, -187500.02, -187500.02, -187500.02, -187500.02, -187500.02, -187500.02, -140162.02, -165014.47, -187500.02, -187500.02, -187500.02, -187500.02, -187500.02, -187500.02, 0.00, 0.00, 0.00
17, -148124.27, -179014.16, -187500.02, -187500.02, -187500.02, -187500.02, -187500.02, -187500.02, -140162.02, -165014.47, -187500.02, -187500.02, -187500.02, -187500.02, -187500.02, -187500.02, 0.00, 0.00, 0.00
18, -148124.27, -179014.16, -187500.02, -187500.02, -187500.02, -187500.02, -187500.02, -187500.02, -140157.03, -165010.98, -187500.02, -187500.02, -187500.02, -187500.02, -187500.02, -187500.02, 0.00, 0.00, 0.00
19, -148123.11, -179015.11, -187500.02, -187500.02, -187500.02, -187500.02, -187500.02, -187500.02, -140157.03, -165010.98, -187500.02, -187500.02, -187500.02, -187500.02, -187500.02, -187500.02, 0.00, 0.00, 0.00
20, -148123.11, -179015.11, -187500.02, -187500.02, -187500.02, -187500.02, -187500.02, -187500.02, -140150.63, -165007.28, -187500.02, -187500.02, -187500.02, -187500.02, -187500.02, -187500.02, 0.00, 0.00, 0.00
21, -148113.36, -179007.11, -187500.02, -187500.02, -187500.02, -187500.02, -187500.02, -187500.02, -140150.63, -165007.28, -187500.02, -187500.02, -187500.02, -187500.02, -187500.02, -187500.02, 0.00, 0.00, 0.00
22, -148113.36, -179007.11, -187500.02, -187500.02, -187500.02, -187500.02, -187500.02, -187500.02, -140146.19, -165004.50, -187500.02, -187500.02, -187500.02, -187500.02, -187500.02, -187500.02, 0.00, 0.00, 0.00
23, -148114.64, -179010.48, -187500.02, -187500.02, -187500.02, -187500.02, -187500.02, -187500.02, -140146.19, -165004.50, -187500.02, -187500.02, -187500.02, -187500.02, -187500.02, -187500.02, 0.00, 0.00, 0.00
24, -148114.64, -179010.48, -187500.02, -187500.02, -187500.02, -187500.02, -187500.02, -187500.02, -140140.56, -165001.27, -187500.02, -187500.02, -187500.02, -187500.02, -187500.02, -187500.02, 0.00, -0.20, 0.95
25, -148102.66, -179000.39, -187500.02, -187500.02, -187500.02, -187500.02, -187500.02, -187500.02, -140140.56, -165001.27, -187500.02, -187500.02, -187500.02, -187500.02, -187500.02, -187500.02, 0.00, 0.00, 0.00
26, -148102.66, -179000.39, -187500.02, -187500.02, -187500.02, -187500.02, -187500.02, -187500.02, -140134.48, -164997.39, -187500.02, -187500.02, -187500.02, -187500.02, -187500.02, -187500.02, 0.00, 0.00, 0.00
27, -148105.61, -179005.38, -187500.02, -187500.02, -187500.02, -187500.02, -187500.02, -187500.02, -140134.48, -164997.39, -187500.02, -187500.02, -187500.02, -187500.02, -187500.02, -187500.02, 0.00, 0.00, 0.00
28, -148105.61, -179005.38, -187500.02, -187500.02, -187500.02, -187500.02, -187500.02, -187500.02, -140130.72, -164995.59, -187500.02, -187500.02, -187500.02, -187500.02, -187500.02, -187500.02, 0.00, 0.00, 0.00
29, -148091.98, -178993.67, -187500.02, -187500.02, -187500.02, -187500.02, -187500.02, -187500.02, -140130.72, -164995.59, -187500.02, -187500.02, -187500.02, -187500.02, -187500.02, -187500.02, 0.00, 0.00, 0.00
30, -148091.98, -178993.67, -187500.02, -187500.02, -187500.02, -187500.02, -187500.02, -187500.02, -140118.72, -164985.91, -187500.02, -187500.02, -187500.02, -187500.02, -187500.02, -187500.02, 0.00, 0.00, 0.00
31, -148089.89, -178993.52, -187500.02, -187500.02, -187500.02, -187500.02, -187500.02, -187500.02, -140118.72, -164985.91, -187500.02, -187500.02, -187500.02, -187500.02, -187500.02, -187500.02, 0.00, 0.00, 0.00
32, -148089.89, -178993.52, -187500.02, -187500.02, -187500.02, -187500.02, -187500.02, -187500.02, -140117.72, -164986.78, -187500.02, -187500.02, -187500.02, -187500.02, -187500.02, -187500.02, 0.00, 0.00, 0.00
33, -148084.50, -178990.22, -187500.02, -187500.02, -187500.02, -187500.02, -187500.02, -187500.02, -140117.72, -164986.78, -187500.02, -187500.02, -187500.02, -187500.02, -187500.02, -187500.02, 0.00, 0.00, 0.00
34, -148084.50, -178990.22, -187500.02, -187500.02, -187500.02, -187500.02, -187500.02, -187500.02, -140111.44, -164983.16, -187500.02, -187500.02, -187500.02, -187500.02, -187500.02, -187500.02, 0.00, -0.20, 0.95
35, -148083.00, -178990.63, -187500.02, -187500.02, -187500.02, -187500.02, -187500.02, -187500.02, -140111.44, -164983.16, -187500.02, -187500.02, -187500.02, -187500.02, -187500.02, -187500.02, 0.00, 0.00, 0.00
36, -148083.00, -178990.63, -187500.02, -187500.02, -187500.02, -187500.02, -187500.02, -187500.02, -140108.75, -164981.89, -187500.02, -187500.02, -187500.02, -187500.02, -187500.02, -187500.02, 0.00, 0.00, 0.00
37, -148075.34, -178984.97, -187500.02, -187500.02, -187500.02, -187500.02, -187500.02, -187500.02, -140108.75, -164981.89, -187500.02, -187500.02, -187500.02, -187500.02, -187500.02, -187500.02, 0.00, 0.00, 0.00
38, -148075.34, -178984.97, -187500.02, -187500.02, -187500.02, -187500.02, -187500.02, -187500.02, -140100.97, -164977.02, -187500.02, -187500.02, -187500.02, -187500.02, -187500.02, -187500.02, 0.00, 0.00, 0.00
39, -148076.39, -178987.89, -187500.02, -187500.02, -187500.02, -187500.02, -187500.02, -187500.02, -140100.97, -164977.02, -187500.02, -187500.02, -187500.02, -187500.02, -187500.02, -187500.02, 0.00, 0.00, 0.00
40, -148076.39, -178987.89, -187500.02, -187500.02, -187500.02, -187500.02, -187500.02, -187500.02, -140102.89, -164980.34, -187500.02, -187500.02, -187500.02, -187500.02, -187500.02, -187500.02, 0.00, 0.00, 0.00
41, -148069.23, -178982.77, -187500.02, -187500.02, -187500.02, -187500.02, -187500.02, -187500.02, -140102.89, -164980.34, -187500.02, -187500.02, -187500.02, -187500.02, -187500.02, -187500.02, 0.00, 0.00, 0.00
42, -148069.23, -178982.77, -187500.02, -187500.02, -187500.02, -187500.02, -187500.02, -187500.02, -140091.16, -164971.69, -187500.02, -187500.02, -187500.02, -187500.02, -187500.02, -187500.02, 0.00, 0.00, 0.00
43, -148065.13, -178980.53, -187500.02, -187500.02, -187500.02, -187500.02, -187500.02, -187500.02, -140091.16, -164971.69, -187500.02, -187500.02, -187500.02, -187500.02, -187500.02, -187500.02, 0.00, 0.00, 0.00
44, -148065.13, -178980.53, -187500.02, -187500.02, -187500.02, -187500.02, -187500.02, -187500.02, -140089.27, -164970.83, -187500.02, -187500.02, -187500.02, -187500.02, -187500.02, -187500.02, 0.00, -0.20, 0.95
45, -148056.91, -178974.48, -187500.02, -187500.02, -187500.02, -187500.02, -187500.02, -187500.02, -140089.27, -164970.83, -187500.02, -187500.02, -187500.02, -187500.02, -187500.02, -187500.02, 0.00, 0.00, 0.00
