%OpenBCI Raw EEG Data
%
%Sample Rate = 250.0 Hz
%First Column = SampleIndex
%Other Columns = EEG data in microvolts followed by Accel Data (in G) interleaved with Aux Data
0, 0.00, 0.00, 0.00, 0.00, 0.00, 0.00, 0.00, 0.00, -88263.99, -87780.73, -88309.77, -86907.02, -86801.21, -87308.64, -87066.32, -87176.47, 0.01, -0.01, 0.49
1, -187500.02, -187500.02, -187500.02, -187500.02, -187500.02, -187500.02, -187500.02, -187500.02, -88263.99, -87780.73, -88309.77, -86907.02, -86801.21, -87308.64, -87066.32, -87176.47, 0.00, 0.00, 0.00
2, -187500.02, -187500.02, -187500.02, -187500.02, -187500.02, -187500.02, -187500.02, -187500.02, -176533.95, -175567.05, -176625.36, -173820.25, -173599.84, -174614.50, -174134.20, -174346.31, 0.00, 0.00, 0.00
3, -187500.02, -187500.02, -187500.02, -187500.02, -187500.02, -187500.02, -187500.02, -187500.02, -176533.95, -175567.05, -176625.36, -173820.25, -173599.84, -174614.50, -174134.20, -174346.31, 0.00, 0.00, 0.00
4, -187500.02, -187500.02, -187500.02, -187500.02, -187500.02, -187500.02, -187500.02, -187500.02, -176543.34, -175575.47, -176634.83, -173822.53, -173603.25, -174612.48, -174138.80, -174339.39, 0.00, 0.00, 0.00
5, -187500.02, -187500.02, -187500.02, -187500.02, -187500.02, -187500.02, -187500.02, -187500.02, -176543.34, -175575.47, -176634.83, -173822.53, -173603.25, -174612.48, -174138.80, -174339.39, 0.00, 0.00, 0.00
6, -187500.02, -187500.02, -187500.02, -187500.02, -187500.02, -187500.02, -187500.02, -187500.02, -176553.41, -175584.13, -176643.97, -173822.77, -173608.30, -174610.95, -174138.33, -174332.17, 0.00, 0.00, 0.00
7, -187500.02, -187500.02, -187500.02, -187500.02, -187500.02, -187500.02, -187500.02, -187500.02, -176553.41, -175584.13, -176643.97, -173822.77, -173608.30, -174610.95, -174138.33, -174332.17, 0.00, -0.01, 0.98
8, -187500.02, -187500.02, -187500.02, -187500.02, -187500.02, -187500.02, -187500.02, -187500.02, -176560.69, -175590.67, -176650.33, -173829.69, -173615.45, -174607.59, -174144.98, -174323.48, 0.00, 0.00, 0.00
9, -187500.02, -187500.02, -187500.02, -187500.02, -187500.02, -187500.02, -187500.02, -187500.02, -176560.69, -175590.67, -176650.33, -173829.69, -173615.45, -174607.59, -174144.98, -174323.48, 0.00, 0.00, 0.00
10, -187500.02, -187500.02, -187500.02, -187500.02, -187500.02, -187500.02, -187500.02, -187500.02, -176568.42, -175597.06, -176656.78, -173824.95, -173605.36, -174603.78, -174142.92, -174314.55, 0.00, 0.00, 0.00
11, -187500.02, -187500.02, -187500.02, -187500.02, -187500.02, -187500.02, -187500.02, -187500.02, -176568.42, -175597.06, -176656.78, -173824.95, -173605.36, -174603.78, -174142.92, -174314.55, 0.00, 0.00, 0.00
12, -187500.02, -187500.02, -187500.02, -187500.02, -187500.02, -187500.02, -187500.02, -187500.02, -176578.06, -175605.88, -176666.89, -173833.52, -173612.05, -174602.55, -174148.31, -174307.81, 0.00, 0.00, 0.00
13, -187500.02, -187500.02, -187500.02, -187500.02, -187500.02, -187500.02, -187500.02, -187500.02, -176578.06, -175605.88, -176666.89, -173833.52, -173612.05, -174602.55, -174148.31, -174307.81, 0.00, 0.00, 0.00
14, -187500.02, -187500.02, -187500.02, -187500.02, -187500.02, -187500.02, -187500.02, -187500.02, -176586.52, -175614.03, -176674.69, -173838.58, -173620.09, -174599.39, -174149.83, -174299.39, 0.00, 0.00, 0.00
15, -187500.02, -187500.02, -187500.02, -187500.02, -187500.02, -187500.02, -187500.02, -187500.02, -176586.52, -175614.03, -176674.69, -173838.58, -173620.09, -174599.39, -174149.83, -174299.39, 0.00, 0.00, 0.00
16, -187500.02, -187500.02, -187500.02, -187500.02, -187500.02, -187500.02, -187500.02, -187500.02, -176594.11, -175621.52, -176681.45, -173835.45, -173618.94, -174596.89, -174152.73, -174290.66, 0.00, 0.00, 0.00
17, -187500.02, -187500.02, -187500.02, -187500.02, -187500.02, -187500.02, -187500.02, -187500.02, -176594.11, -175621.52, -176681.45, -173835.45, -173618.94, -174596.89, -174152.73, -174290.66, 0.01, -0.01, 0.97
18, -187500.02, -187500.02, -187500.02, -187500.02, -187500.02, -187500.02, -187500.02, -187500.02, -176601.13, -175626.61, -176686.36, -173840.63, -173617.44, -174592.86, -174154.13, -174281.48, 0.00, 0.00, 0.00
19, -187500.02, -187500.02, -187500.02, -187500.02, -187500.02, -187500.02, -187500.02, -187500.02, -176601.13, -175626.61, -176686.36, -173840.63, -173617.44, -174592.86, -174154.13, -174281.48, 0.00, 0.00, 0.00
20, -187500.02, -187500.02, -187500.02, -187500.02, -187500.02, -187500.02, -187500.02, -187500.02, -176611.28, -175635.33, -176695.50, -173845.20, -173624.23, -174591.45, -174158.55, -174274.89, 0.00, 0.00, 0.00
21, -187500.02, -187500.02, -187500.02, -187500.02, -187500.02, -187500.02, -187500.02, -187500.02, -176611.28, -175635.33, -176695.50, -173845.20, -173624.23, -174591.45, -174158.55, -174274.89, 0.00, 0.00, 0.00
22, -187500.02, -187500.02, -187500.02, -187500.02, -187500.02, -187500.02, -187500.02, -187500.02, -176621.22, -175643.64, -176704.13, -173843.17, -173623.52, -174590.72, -174158.27, -174267.56, 0.00, 0.00, 0.00
23, -187500.02, -187500.02, -187500.02, -187500.02, -187500.02, -187500.02, -187500.02, -187500.02, -176621.22, -175643.64, -176704.13, -173843.17, -173623.52, -174590.72, -174158.27, -174267.56, 0.00, 0.00, 0.00
24, -187500.02, -187500.02, -187500.02, -187500.02, -187500.02, -187500.02, -187500.02, -187500.02, -176630.31, -175651.20, -176711.13, -173842.70, -173631.94, -174587.06, -174158.23, -174260.09, 0.00, 0.00, 0.00
25, -187500.02, -187500.02, -187500.02, -187500.02, -187500.02, -187500.02, -187500.02, -187500.02, -176630.31, -175651.20, -176711.13, -173842.70, -173631.94, -174587.06, -174158.23, -174260.09, 0.00, 0.00, 0.00
26, -187500.02, -187500.02, -187500.02, -187500.02, -187500.02, -187500.02, -187500.02, -187500.02, -176638.25, -175657.06, -176718.09, -173846.31, -173624.95, -174582.83, -174158.78, -174251.53, 0.00, 0.00, 0.00
27, -187500.02, -187500.02, -187500.02, -187500.02, -187500.02, -187500.02, -187500.02, -187500.02, -176638.25, -175657.06, -176718.09, -173846.31, -173624.95, -174582.83, -174158.78, -174251.53, 0.01, -0.01, 0.97
28, -187500.02, -187500.02, -187500.02, -187500.02, -187500.02, -187500.02, -187500.02, -187500.02, -176649.20, -175666.88, -176727.03, -173847.50, -173628.91, -174581.48, -174161.17, -174244.58, 0.00, 0.00, 0.00
29, -187500.02, -187500.02, -187500.02, -187500.02, -187500.02, -187500.02, -187500.02, -187500.02, -176649.20, -175666.88, -176727.03, -173847.50, -173628.91, -174581.48, -174161.17, -174244.58, 0.00, 0.00, 0.00
30, -187500.02, -187500.02, -187500.02, -187500.02, -187500.02, -187500.02, -187500.02, -187500.02, -176658.02, -175674.53, -176734.91, -173854.23, -173631.50, -174579.23, -174166.98, -174237.31, 0.00, 0.00, 0.00
31, -187500.02, -187500.02, -187500.02, -187500.02, -187500.02, -187500.02, -187500.02, -187500.02, -176658.02, -175674.53, -176734.91, -173854.23, -173631.50, -174579.23, -174166.98, -174237.31, 0.00, 0.00, 0.00
32, -187500.02, -187500.02, -187500.02, -187500.02, -187500.02, -187500.02, -187500.02, -187500.02, -176665.66, -175681.36, -176741.20, -173852.00, -173634.27, -174577.06, -174168.19, -174228.72, 0.00, 0.00, 0.00
33, -187500.02, -187500.02, -187500.02, -187500.02, -187500.02, -187500.02, -187500.02, -187500.02, -176665.66, -175681.36, -176741.20, -173852.00, -173634.27, -174577.06, -174168.19, -174228.72, 0.00, 0.00, 0.00
34, -187500.02, -187500.02, -187500.02, -187500.02, -187500.02, -187500.02, -187500.02, -187500.02, -176672.20, -175686.92, -176747.16, -173854.56, -173638.50, -174572.27, -174172.98, -174219.45, 0.00, 0.00, 0.00
35, -187500.02, -187500.02, -187500.02, -187500.02, -187500.02, -187500.02, -187500.02, -187500.02, -176672.20, -175686.92, -176747.16, -173854.56, -173638.50, -174572.27, -174172.98, -174219.45, 0.00, 0.00, 0.00
36, -187500.02, -187500.02, -187500.02, -187500.02, -187500.02, -187500.02, -187500.02, -187500.02, -176682.69, -175696.23, -176757.97, -173857.58, -173638.92, -174572.13, -174172.47, -174213.05, 0.00, 0.00, 0.00
37, -187500.02, -187500.02, -187500.02, -187500.02, -187500.02, -187500.02, -187500.02, -187500.02, -176682.69, -175696.23, -176757.97, -173857.58, -173638.92, -174572.13, -174172.47, -174213.05, 0.01, -0.01, 0.98
38, -187500.02, -187500.02, -187500.02, -187500.02, -187500.02, -187500.02, -187500.02, -187500.02, -176690.89, -175703.84, -176766.42, -173862.25, -173638.38, -174569.58, -174174.16, -174204.22, 0.00, 0.00, 0.00
39, -187500.02, -187500.02, -187500.02, -187500.02, -187500.02, -187500.02, -187500.02, -187500.02, -176690.89, -175703.84, -176766.42, -173862.25, -173638.38, -174569.58, -174174.16, -174204.22, 0.00, 0.00, 0.00
40, -187500.02, -187500.02, -187500.02, -187500.02, -187500.02, -187500.02, -187500.02, -187500.02, -176699.78, -175711.50, -176773.86, -173864.98, -173646.22, -174566.31, -174179.22, -174195.86, 0.00, 0.00, 0.00
41, -187500.02, -187500.02, -187500.02, -187500.02, -187500.02, -187500.02, -187500.02, -187500.02, -176699.78, -175711.50, -176773.86, -173864.98, -173646.22, -174566.31, -174179.22, -174195.86, 0.00, 0.00, 0.00
42, -187500.02, -187500.02, -187500.02, -187500.02, -187500.02, -187500.02, -187500.02, -187500.02, -176706.25, -175716.84, -176779.25, -173865.16, -173645.67, -174562.67, -174181.34, -174186.47, 0.00, 0.00, 0.00
43, -187500.02, -187500.02, -187500.02, -187500.02, -187500.02, -187500.02, -187500.02, -187500.02, -176706.25, -175716.84, -176779.25, -173865.16, -173645.67, -174562.67, -174181.34, -174186.47, 0.00, 0.00, 0.00
44, -187500.02, -187500.02, -187500.02, -187500.02, -187500.02, -187500.02, -187500.02, -187500.02, -176716.64, -175725.83, -176788.95, -173866.53, -173645.84, -174561.39, -174177.77, -174180.28, 0.00, 0.00, 0.00
45, -187500.02, -187500.02, -187500.02, -187500.02, -187500.02, -187500.02, -187500.02, -187500.02, -176716.64, -175725.83, -176788.95, -173866.53, -173645.84, -174561.39, -174177.77, -174180.28, 0.00, 0.00, 0.00
46, -187500.02, -187500.02, -187500.02, -187500.02, -187500.02, -187500.02, -187500.02, -187500.02, -176726.91, -175735.27, -176798.61, -173870.50, -173654.16, -174560.95, -174188.30, -174173.92, 0.00, 0.00, 0.00
47, -187500.02, -187500.02, -187500.02, -187500.02, -187500.02, -187500.02, -187500.02, -187500.02, -176726.91, -175735.27, -176798.61, -173870.50, -173654.16, -174560.95, -174188.30, -174173.92, 0.00, -0.00, 0.97
48, -187500.02, -187500.02, -187500.02, -187500.02, -187500.02, -187500.02, -187500.02, -187500.02, -176734.09, -175740.97, -176805.41, -173870.25, -173652.73, -174557.38, -174185.75, -174164.97, 0.00, 0.00, 0.00
49, -187500.02, -187500.02, -187500.02, -187500.02, -187500.02, -187500.02, -187500.02, -187500.02, -176734.09, -175740.97, -176805.41, -173870.25, -173652.73, -174557.38, -174185.75, -174164.97, 0.00, 0.00, 0.00
50, -187500.02, -187500.02, -187500.02, -187500.02, -187500.02, -187500.02, -187500.02, -187500.02, -176740.89, -175747.02, -176810.58, -173872.53, -173659.91, -174553.14, -174192.34, -174154.69, 0.00, 0.00, 0.00
51, -187500.02, -187500.02, -187500.02, -187500.02, -187500.02, -187500.02, -187500.02, -187500.02, -176740.89, -175747.02, -176810.58, -173872.53, -173659.91, -174553.14, -174192.34, -174154.69, 0.00, 0.00, 0.00
52, -187500.02, -187500.02, -187500.02, -187500.02, -187500.02, -187500.02, -187500.02, -187500.02, -176750.48, -175754.89, -176819.14, -173878.53, -173660.95, -174550.58, -174190.09, -174147.91, 0.00, 0.00, 0.00
53, -187500.02, -187500.02, -187500.02, -187500.02, -187500.02, -187500.02, -187500.02, -187500.02, -176750.48, -175754.89, -176819.14, -173878.53, -173660.95, -174550.58, -174190.09, -174147.91, 0.00, 0.00, 0.00
54, -187500.02, -187500.02, -187500.02, -187500.02, -187500.02, -187500.02, -187500.02, -187500.02, -176761.59, -175764.52, -176828.80, -173876.78, -173659.50, -174549.39, -174195.41, -174141.83, 0.00, 0.00, 0.00
55, -187500.02, -187500.02, -187500.02, -187500.02, -187500.02, -187500.02, -187500.02, -187500.02, -176761.59, -175764.52, -176828.80, -173876.78, -173659.50, -174549.39, -174195.41, -174141.83, 0.00, 0.00, 0.00
56, -187500.02, -187500.02, -187500.02, -187500.02, -187500.02, -187500.02, -187500.02, -187500.02, -176769.77, -175771.25, -176836.27, -173878.55, -173661.97, -174546.88, -174196.06, -174132.94, 0.00, 0.00, 0.00
57, -187500.02, -187500.02, -187500.02, -187500.02, -187500.02, -187500.02, -187500.02, -187500.02, -176769.77, -175771.25, -176836.27, -173878.55, -173661.97, -174546.88, -174196.06, -174132.94, 0.00, -0.01, 0.97
58, -187500.02, -187500.02, -187500.02, -187500.02, -187500.02, -187500.02, -187500.02, -187500.02, -176776.92, -175778.20, -176842.64, -173882.66, -173668.56, -174543.42, -174200.38, -174123.09, 0.00, 0.00, 0.00
59, -187500.02, -187500.02, -187500.02, -187500.02, -187500.02, -187500.02, -187500.02, -187500.02, -176776.92, -175778.20, -176842.64, -173882.66, -173668.56, -174543.42, -174200.38, -174123.09, 0.00, 0.00, 0.00
60, -187500.02, -187500.02, -187500.02, -187500.02, -187500.02, -187500.02, -187500.02, -187500.02, -176786.88, -175786.66, -176851.95, -173886.55, -173670.72, -174542.05, -174200.58, -174116.95, 0.00, 0.00, 0.00
61, -187500.02, -187500.02, -187500.02, -187500.02, -187500.02, -187500.02, -187500.02, -187500.02, -176786.88, -175786.66, -176851.95, -173886.55, -173670.72, -174542.05, -174200.58, -174116.95, 0.00, 0.00, 0.00
62, -187500.02, -187500.02, -187500.02, -187500.02, -187500.02, -187500.02, -187500.02, -187500.02, -176797.27, -175794.98, -176861.28, -173887.64, -173670.30, -174539.38, -174200.59, -174110.67, 0.00, 0.00, 0.00
63, -187500.02, -187500.02, -187500.02, -187500.02, -187500.02, -187500.02, -187500.02, -187500.02, -176797.27, -175794.98, -176861.28, -173887.64, -173670.30, -174539.38, -174200.59, -174110.67, 0.00, 0.00, 0.00
64, -187500.02, -187500.02, -187500.02, -187500.02, -187500.02, -187500.02, -187500.02, -187500.02, -176804.91, -175800.95, -176867.14, -173889.23, -173676.17, -174535.64, -174205.25, -174101.31, 0.00, 0.00, 0.00
65, -187500.02, -187500.02, -187500.02, -187500.02, -187500.02, -187500.02, -187500.02, -187500.02, -176804.91, -175800.95, -176867.14, -173889.23, -173676.17, -174535.64, -174205.25, -174101.31, 0.00, 0.00, 0.00
66, -187500.02, -187500.02, -187500.02, -187500.02, -187500.02, -187500.02, -187500.02, -187500.02, -176813.36, -175807.33, -176874.02, -173889.77, -173672.89, -174533.41, -174208.23, -174093.44, 0.00, 0.00, 0.00
67, -187500.02, -187500.02, -187500.02, -187500.02, -187500.02, -187500.02, -187500.02, -187500.02, -176813.36, -175807.33, -176874.02, -173889.77, -173672.89, -174533.41, -174208.23, -174093.44, 0.00, -0.01, 0.98
68, -187500.02, -187500.02, -187500.02, -187500.02, -187500.02, -187500.02, -187500.02, -187500.02, -176823.30, -175815.91, -176883.31, -173892.09, -173672.80, -174532.63, -174209.48, -174086.17, 0.00, 0.00, 0.00
69, -187500.02, -187500.02, -187500.02, -187500.02, -187500.02, -187500.02, -187500.02, -187500.02, -176823.30, -175815.91, -176883.31, -173892.09, -173672.80, -174532.63, -174209.48, -174086.17, 0.00, 0.00, 0.00
70, -187500.02, -187500.02, -187500.02, -187500.02, -187500.02, -187500.02, -187500.02, -187500.02, -176833.39, -175824.22, -176892.69, -173899.53, -173679.42, -174531.28, -174211.66, -174079.16, 0.00, 0.00, 0.00
71, -187500.02, -187500.02, -187500.02, -187500.02, -187500.02, -187500.02, -187500.02, -187500.02, -176833.39, -175824.22, -176892.69, -173899.53, -173679.42, -174531.28, -174211.66, -174079.16, 0.00, 0.00, 0.00
72, -187500.02, -187500.02, -187500.02, -187500.02, -187500.02, -187500.02, -187500.02, -187500.02, -176840.38, -175829.88, -176899.56, -173901.28, -173682.86, -174526.59, -174213.09, -174069.77, 0.00, 0.00, 0.00
73, -187500.02, -187500.02, -187500.02, -187500.02, -187500.02, -187500.02, -187500.02, -187500.02, -176840.38, -175829.88, -176899.56, -173901.28, -173682.86, -174526.59, -174213.09, -174069.77, 0.00, 0.00, 0.00
74, -187500.02, -187500.02, -187500.02, -187500.02, -187500.02, -187500.02, -187500.02, -187500.02, -176848.03, -175837.33, -176905.58, -173902.13, -173677.50, -174523.31, -174214.34, -174062.27, 0.00, 0.00, 0.00
75, -187500.02, -187500.02, -187500.02, -187500.02, -187500.02, -187500.02, -187500.02, -187500.02, -176848.03, -175837.33, -176905.58, -173902.13, -173677.50, -174523.31, -174214.34, -174062.27, 0.00, 0.00, 0.00
76, -187500.02, -187500.02, -187500.02, -187500.02, -187500.02, -187500.02, -187500.02, -187500.02, -176856.61, -175845.84, -176913.98, -173901.91, -173688.61, -174520.88, -174214.45, -174054.97, 0.00, 0.00, 0.00
77, -187500.02, -187500.02, -187500.02, -187500.02, -187500.02, -187500.02, -187500.02, -187500.02, -176856.61, -175845.84, -176913.98, -173901.91, -173688.61, -174520.88, -174214.45, -174054.97, 0.00, -0.01, 0.98
78, -187500.02, -187500.02, -187500.02, -187500.02, -187500.02, -187500.02, -187500.02, -187500.02, -176867.98, -175855.83, -176925.16, -173904.02, -173688.69, -174520.84, -174216.36, -174050.08, 0.00, 0.00, 0.00
79, -187500.02, -187500.02, -187500.02, -187500.02, -187500.02, -187500.02, -187500.02, -187500.02, -176867.98, -175855.83, -176925.16, -173904.02, -173688.69, -174520.84, -174216.36, -174050.08, 0.00, 0.00, 0.00
80, -187500.02, -187500.02, -187500.02, -187500.02, -187500.02, -187500.02, -187500.02, -187500.02, -176874.52, -175861.80, -176930.95, -173909.13, -173693.44, -174516.72, -174219.22, -174040.58, 0.00, 0.00, 0.00
81, -187500.02, -187500.02, -187500.02, -187500.02, -187500.02, -187500.02, -187500.02, -187500.02, -176874.52, -175861.80, -176930.95, -173909.13, -173693.44, -174516.72, -174219.22, -174040.58, 0.00, 0.00, 0.00
82, -187500.02, -187500.02, -187500.02, -187500.02, -187500.02, -187500.02, -187500.02, -187500.02, -176881.19, -175867.36, -176937.56, -173917.11, -173693.08, -174513.41, -174219.45, -174030.86, 0.00, 0.00, 0.00
83, -187500.02, -187500.02, -187500.02, -187500.02, -187500.02, -187500.02, -187500.02, -187500.02, -176881.19, -175867.36, -176937.56, -173917.11, -173693.08, -174513.41, -174219.45, -174030.86, 0.00, 0.00, 0.00
84, -187500.02, -187500.02, -187500.02, -187500.02, -187500.02, -187500.02, -187500.02, -187500.02, -176892.08, -175875.77, -176945.86, -173911.83, -173691.94, -174511.75, -174218.13, -174024.16, 0.00, 0.00, 0.00
85, -187500.02, -187500.02, -187500.02, -187500.02, -187500.02, -187500.02, -187500.02, -187500.02, -176892.08, -175875.77, -176945.86, -173911.83, -173691.94, -174511.75, -174218.13, -174024.16, 0.00, 0.00, 0.00
86, -187500.02, -187500.02, -187500.02, -187500.02, -187500.02, -187500.02, -187500.02, -187500.02, -176903.77, -175885.77, -176956.34, -173911.20, -173697.45, -174511.94, -174221.06, -174019.05, 0.00, 0.00, 0.00
87, -187500.02, -187500.02, -187500.02, -187500.02, -187500.02, -187500.02, -187500.02, -187500.02, -176903.77, -175885.77, -176956.34, -173911.20, -173697.45, -174511.94, -174221.06, -174019.05, 0.01, -0.01, 0.97
88, -187500.02, -187500.02, -187500.02, -187500.02, -187500.02, -187500.02, -187500.02, -187500.02, -176904.00, -175884.91, -176954.50, -173924.23, -173714.00, -174500.88, -174238.92, -173832.89, 0.00, 0.00, 0.00
89, -187500.02, -187500.02, -187500.02, -187500.02, -187500.02, -187500.02, -187500.02, -187500.02, -176904.00, -175884.91, -176954.50, -173924.23, -173714.00, -174500.88, -174238.92, -173832.89, 0.00, 0.00, 0.00
90, -187500.02, -187500.02, -187500.02, -187500.02, -187500.02, -187500.02, -187500.02, -187500.02, -176860.70, -175842.28, -176910.72, -173933.45, -173738.16, -174447.84, -174252.27, -173844.73, 0.00, 0.00, 0.00
91, -187500.02, -187500.02, -187500.02, -187500.02, -187500.02, -187500.02, -187500.02, -187500.02, -176860.70, -175842.28, -176910.72, -173933.45, -173738.16, -174447.84, -174252.27, -173844.73, 0.00, 0.00, 0.00
92, -187500.02, -187500.02, -187500.02, -187500.02, -187500.02, -187500.02, -187500.02, -187500.02, -176806.78, -175787.64, -176855.47, -173933.42, -173736.61, -174383.66, -174250.73, -174251.73, 0.00, 0.00, 0.00
93, -187500.02, -187500.02, -187500.02, -187500.02, -187500.02, -187500.02, -187500.02, -187500.02, -176806.78, -175787.64, -176855.47, -173933.42, -173736.61, -174383.66, -174250.73, -174251.73, 0.00, 0.00, 0.00
94, -187500.02, -187500.02, -187500.02, -187500.02, -187500.02, -187500.02, -187500.02, -187500.02, -176775.34, -175755.53, -176824.38, -173914.16, -173705.33, -174343.09, -174233.27, -174917.06, 0.00, 0.00, 0.00
95, -187500.02, -187500.02, -187500.02, -187500.02, -187500.02, -187500.02, -187500.02, -187500.02, -176775.34, -175755.53, -176824.38, -173914.16, -173705.33, -174343.09, -174233.27, -174917.06, 0.00, 0.00, 0.00
96, -187500.02, -187500.02, -187500.02, -187500.02, -187500.02, -187500.02, -187500.02, -187500.02, -176779.45, -175759.63, -176828.31, -173913.58, -173694.03, -174337.23, -174229.50, -175024.97, 0.00, 0.00, 0.00
97, -187500.02, -187500.02, -187500.02, -187500.02, -187500.02, -187500.02, -187500.02, -187500.02, -176779.45, -175759.63, -176828.31, -173913.58, -173694.03, -174337.23, -174229.50, -175024.97, 0.01, -0.01, 0.98
98, -187500.02, -187500.02, -187500.02, -187500.02, -187500.02, -187500.02, -187500.02, -187500.02, -176787.61, -175767.25, -176835.02, -173913.03, -173696.73, -174334.14, -174231.47, -175013.08, 0.00, 0.00, 0.00
99, -187500.02, -187500.02, -187500.02, -187500.02, -187500.02, -187500.02, -187500.02, -187500.02, -176787.61, -175767.25, -176835.02, -173913.03, -173696.73, -174334.14, -174231.47, -175013.08, 0.00, 0.00, 0.00
100, -187500.02, -187500.02, -187500.02, -187500.02, -187500.02, -187500.02, -187500.02, -187500.02, -176797.78, -175775.44, -176843.38, -173919.92, -173705.77, -174332.98, -174233.78, -175003.95, 0.00, 0.00, 0.00
101, -187500.02, -187500.02, -187500.02, -187500.02, -187500.02, -187500.02, -187500.02, -187500.02, -176797.78, -175775.44, -176843.38, -173919.92, -173705.77, -174332.98, -174233.78, -175003.95, 0.00, 0.00, 0.00
102, -187500.02, -187500.02, -187500.02, -187500.02, -187500.02, -187500.02, -187500.02, -187500.02, -176808.53, -175784.53, -176854.02, -173922.25, -173702.84, -174331.78, -174232.58, -174996.34, 0.00, 0.00, 0.00
103, -187500.02, -187500.02, -187500.02, -187500.02, -187500.02, -187500.02, -187500.02, -187500.02, -176808.53, -175784.53, -176854.02, -173922.25, -173702.84, -174331.78, -174232.58, -174996.34, 0.00, 0.00, 0.00
104, -187500.02, -187500.02, -187500.02, -187500.02, -187500.02, -187500.02, -187500.02, -187500.02, -176817.31, -175792.11, -176860.86, -173920.81, -173705.77, -174328.77, -174237.08, -174987.38, 0.00, 0.00, 0.00
105, -187500.02, -187500.02, -187500.02, -187500.02, -187500.02, -187500.02, -187500.02, -187500.02, -176817.31, -175792.11, -176860.86, -173920.81, -173705.77, -174328.77, -174237.08, -174987.38, 0.00, 0.00, 0.00
106, -187500.02, -187500.02, -187500.02, -187500.02, -187500.02, -187500.02, -187500.02, -187500.02, -176825.45, -175799.34, -176866.84, -173923.09, -173706.33, -174325.42, -174234.81, -174978.17, 0.00, 0.00, 0.00
107, -187500.02, -187500.02, -187500.02, -187500.02, -187500.02, -187500.02, -187500.02, -187500.02, -176825.45, -175799.34, -176866.84, -173923.09, -173706.33, -174325.42, -174234.81, -174978.17, 0.01, -0.01, 0.97
108, -187500.02, -187500.02, -187500.02, -187500.02, -187500.02, -187500.02, -187500.02, -187500.02, -176835.64, -175807.50, -176876.20, -173931.77, -173707.81, -174323.97, -174238.45, -174970.41, 0.00, 0.00, 0.00
109, -187500.02, -187500.02, -187500.02, -187500.02, -187500.02, -187500.02, -187500.02, -187500.02, -176835.64, -175807.50, -176876.20, -173931.77, -173707.81, -174323.97, -174238.45, -174970.41, 0.00, 0.00, 0.00
110, -187500.02, -187500.02, -187500.02, -187500.02, -187500.02, -187500.02, -187500.02, -187500.02, -176845.45, -175816.61, -176885.52, -173929.33, -173708.98, -174323.31, -174243.23, -174962.34, 0.00, 0.00, 0.00
111, -187500.02, -187500.02, -187500.02, -187500.02, -187500.02, -187500.02, -187500.02, -187500.02, -176845.45, -175816.61, -176885.52, -173929.33, -173708.98, -174323.31, -174243.23, -174962.34, 0.00, 0.00, 0.00
112, -187500.02, -187500.02, -187500.02, -187500.02, -187500.02, -187500.02, -187500.02, -187500.02, -176854.78, -175824.22, -176893.05, -173928.70, -173711.16, -174320.59, -174242.61, -174954.77, 0.00, 0.00, 0.00
113, -187500.02, -187500.02, -187500.02, -187500.02, -187500.02, -187500.02, -187500.02, -187500.02, -176854.78, -175824.22, -176893.05, -173928.70, -173711.16, -174320.59, -174242.61, -174954.77, 0.00, 0.00, 0.00
114, -187500.02, -187500.02, -187500.02, -187500.02, -187500.02, -187500.02, -187500.02, -187500.02, -176861.88, -175830.81, -176898.78, -173932.03, -173718.69, -174316.20, -174247.67, -174945.05, 0.00, 0.00, 0.00
115, -187500.02, -187500.02, -187500.02, -187500.02, -187500.02, -187500.02, -187500.02, -187500.02, -176861.88, -175830.81, -176898.78, -173932.03, -173718.69, -174316.20, -174247.67, -174945.05, 0.00, 0.00, 0.00
116, -187500.02, -187500.02, -187500.02, -187500.02, -187500.02, -187500.02, -187500.02, -187500.02, -176871.73, -175838.33, -176906.66, -173936.27, -173717.75, -174314.08, -174250.02, -174936.75, 0.00, 0.00, 0.00
117, -187500.02, -187500.02, -187500.02, -187500.02, -187500.02, -187500.02, -187500.02, -187500.02, -176871.73, -175838.33, -176906.66, -173936.27, -173717.75, -174314.08, -174250.02, -174936.75, 0.01, -0.01, 0.97
118, -187500.02, -187500.02, -187500.02, -187500.02, -187500.02, -187500.02, -187500.02, -187500.02, -176882.20, -175848.52, -176916.59, -173933.11, -173716.59, -174313.81, -174250.78, -174930.98, 0.00, 0.00, 0.00
119, -187500.02, -187500.02, -187500.02, -187500.02, -187500.02, -187500.02, -187500.02, -187500.02, -176882.20, -175848.52, -176916.59, -173933.11, -173716.59, -174313.81, -174250.78, -174930.98, 0.00, 0.00, 0.00
120, -187500.02, -187500.02, -187500.02, -187500.02, -187500.02, -187500.02, -187500.02, -187500.02, -176889.27, -175855.27, -176923.02, -173941.27, -173724.17, -174310.98, -174253.39, -174922.48, 0.00, 0.00, 0.00
121, -187500.02, -187500.02, -187500.02, -187500.02, -187500.02, -187500.02, -187500.02, -187500.02, -176889.27, -175855.27, -176923.02, -173941.27, -173724.17, -174310.98, -174253.39, -174922.48, 0.00, 0.00, 0.00
122, -187500.02, -187500.02, -187500.02, -187500.02, -187500.02, -187500.02, -187500.02, -187500.02, -176896.80, -175861.66, -176929.86, -173937.09, -173716.05, -174307.28, -174253.61, -174912.41, 0.00, 0.00, 0.00
123, -187500.02, -187500.02, -187500.02, -187500.02, -187500.02, -187500.02, -187500.02, -187500.02, -176896.80, -175861.66, -176929.86, -173937.09, -173716.05, -174307.28, -174253.61, -174912.41, 0.00, 0.00, 0.00
124, -187500.02, -187500.02, -187500.02, -187500.02, -187500.02, -187500.02, -187500.02, -187500.02, -176907.64, -175870.06, -176938.45, -173940.69, -173728.34, -174306.27, -174254.11, -174905.05, 0.00, 0.00, 0.00
125, -187500.02, -187500.02, -187500.02, -187500.02, -187500.02, -187500.02, -187500.02, -187500.02, -176907.64, -175870.06, -176938.45, -173940.69, -173728.34, -174306.27, -174254.11, -174905.05, 0.00, 0.00, 0.00
126, -187500.02, -187500.02, -187500.02, -187500.02, -187500.02, -187500.02, -187500.02, -187500.02, -176916.95, -175877.47, -176946.94, -173941.05, -173725.91, -174304.27, -174259.78, -174898.44, 0.00, -0.02, 0.96
127, -187500.02, -187500.02, -187500.02, -187500.02, -187500.02, -187500.02, -187500.02, -187500.02, -176916.95, -175877.47, -176946.94, -173941.05, -173725.91, -174304.27, -174259.78, -174898.44, 0.00, 0.00, 0.00
128, -187500.02, -187500.02, -187500.02, -187500.02, -187500.02, -187500.02, -187500.02, -187500.02, -176925.30, -175885.36, -176955.17, -173949.63, -173726.98, -174301.09, -174261.48, -174889.78, 0.00, 0.00, 0.00
129, -187500.02, -187500.02, -187500.02, -187500.02, -187500.02, -187500.02, -187500.02, -187500.02, -176925.30, -175885.36, -176955.17, -173949.63, -173726.98, -174301.09, -174261.48, -174889.78, 0.00, 0.00, 0.00
130, -187500.02, -187500.02, -187500.02, -187500.02, -187500.02, -187500.02, -187500.02, -187500.02, -176931.70, -175890.88, -176960.67, -173947.19, -173732.53, -174296.48, -174264.70, -174879.28, 0.00, 0.00, 0.00
131, -187500.02, -187500.02, -187500.02, -187500.02, -187500.02, -187500.02, -187500.02, -187500.02, -176931.70, -175890.88, -176960.67, -173947.19, -173732.53, -174296.48, -174264.70, -174879.28, 0.00, 0.00, 0.00
132, -187500.02, -187500.02, -187500.02, -187500.02, -187500.02, -187500.02, -187500.02, -187500.02, -176942.23, -175899.94, -176969.97, -173948.83, -173729.16, -174296.02, -174266.16, -174872.58, 0.00, 0.00, 0.00
133, -187500.02, -187500.02, -187500.02, -187500.02, -187500.02, -187500.02, -187500.02, -187500.02, -176942.23, -175899.94, -176969.97, -173948.83, -173729.16, -174296.02, -174266.16, -174872.58, 0.00, 0.00, 0.00
134, -187500.02, -187500.02, -187500.02, -187500.02, -187500.02, -187500.02, -187500.02, -187500.02, -176951.28, -175907.16, -176978.11, -173958.38, -173744.75, -174294.09, -174271.94, -174864.63, 0.00, 0.00, 0.00
135, -187500.02, -187500.02, -187500.02, -187500.02, -187500.02, -187500.02, -187500.02, -187500.02, -176951.28, -175907.16, -176978.11, -173958.38, -173744.75, -174294.09, -174271.94, -174864.63, 0.00, 0.00, 0.00
136, -187500.02, -187500.02, -187500.02, -187500.02, -187500.02, -187500.02, -187500.02, -187500.02, -176958.67, -175913.81, -176984.55, -173956.63, -173738.45, -174289.63, -174268.14, -174854.97, 0.00, -0.01, 0.97
137, -187500.02, -187500.02, -187500.02, -187500.02, -187500.02, -187500.02, -187500.02, -187500.02, -176958.67, -175913.81, -176984.55, -173956.63, -173738.45, -174289.63, -174268.14, -174854.97, 0.00, 0.00, 0.00
138, -187500.02, -187500.02, -187500.02, -187500.02, -187500.02, -187500.02, -187500.02, -187500.02, -176966.22, -175920.38, -176991.02, -173962.25, -173742.56, -174286.78, -174276.66, -174845.80, 0.00, 0.00, 0.00
139, -187500.02, -187500.02, -187500.02, -187500.02, -187500.02, -187500.02, -187500.02, -187500.02, -176966.22, -175920.38, -176991.02, -173962.25, -173742.56, -174286.78, -174276.66, -174845.80, 0.00, 0.00, 0.00
140, -187500.02, -187500.02, -187500.02, -187500.02, -187500.02, -187500.02, -187500.02, -187500.02, -176974.83, -175927.11, -176998.86, -173966.06, -173745.31, -174284.48, -174276.67, -174837.75, 0.00, 0.00, 0.00
141, -187500.02, -187500.02, -187500.02, -187500.02, -187500.02, -187500.02, -187500.02, -187500.02, -176974.83, -175927.11, -176998.86, -173966.06, -173745.31, -174284.48, -174276.67, -174837.75, 0.00, 0.00, 0.00
142, -187500.02, -187500.02, -187500.02, -187500.02, -187500.02, -187500.02, -187500.02, -187500.02, -176985.27, -175935.97, -177008.95, -173966.17, -173747.75, -174283.34, -174281.50, -174831.20, 0.00, 0.00, 0.00
143, -187500.02, -187500.02, -187500.02, -187500.02, -187500.02, -187500.02, -187500.02, -187500.02, -176985.27, -175935.97, -177008.95, -173966.17, -173747.75, -174283.34, -174281.50, -174831.20, 0.00, 0.00, 0.00
144, -187500.02, -187500.02, -187500.02, -187500.02, -187500.02, -187500.02, -187500.02, -187500.02, -176992.59, -175942.48, -177013.88, -173967.11, -173753.83, -174280.03, -174282.92, -174821.89, 0.00, 0.00, 0.00
145, -187500.02, -187500.02, -187500.02, -187500.02, -187500.02, -187500.02, -187500.02, -187500.02, -176992.59, -175942.48, -177013.88, -173967.11, -173753.83, -174280.03, -174282.92, -174821.89, 0.00, 0.00, 0.00
146, -187500.02, -187500.02, -187500.02, -187500.02, -187500.02, -187500.02, -187500.02, -187500.02, -177000.86, -175949.58, -177020.83, -173970.22, -173745.47, -174276.83, -174283.09, -174813.44, 0.00, -0.01, 0.97
147, -187500.02, -187500.02, -187500.02, -187500.02, -187500.02, -187500.02, -187500.02, -187500.02, -177000.86, -175949.58, -177020.83, -173970.22, -173745.47, -174276.83, -174283.09, -174813.44, 0.00, 0.00, 0.00
148, -187500.02, -187500.02, -187500.02, -187500.02, -187500.02, -187500.02, -187500.02, -187500.02, -177010.83, -175958.38, -177030.09, -173970.33, -173753.42, -174275.06, -174284.45, -174806.64, 0.00, 0.00, 0.00
149, -187500.02, -187500.02, -187500.02, -187500.02, -187500.02, -187500.02, -187500.02, -187500.02, -177010.83, -175958.38, -177030.09, -173970.33, -173753.42, -174275.06, -174284.45, -174806.64, 0.00, 0.00, 0.00
150, -187500.02, -187500.02, -187500.02, -187500.02, -187500.02, -187500.02, -187500.02, -187500.02, -177020.83, -175967.00, -177040.20, -173970.08, -173754.03, -174274.47, -174286.69, -174800.00, 0.00, 0.00, 0.00
151, -187500.02, -187500.02, -187500.02, -187500.02, -187500.02, -187500.02, -187500.02, -187500.02, -177020.83, -175967.00, -177040.20, -173970.08, -173754.03, -174274.47, -174286.69, -174800.00, 0.00, 0.00, 0.00
152, -187500.02, -187500.02, -187500.02, -187500.02, -187500.02, -187500.02, -187500.02, -187500.02, -177028.33, -175973.72, -177046.17, -173980.16, -173758.81, -174271.53, -174292.06, -174790.86, 0.00, 0.00, 0.00
153, -187500.02, -187500.02, -187500.02, -187500.02, -187500.02, -187500.02, -187500.02, -187500.02, -177028.33, -175973.72, -177046.17, -173980.16, -173758.81, -174271.53, -174292.06, -174790.86, 0.00, 0.00, 0.00
154, -187500.02, -187500.02, -187500.02, -187500.02, -187500.02, -187500.02, -187500.02, -187500.02, -177034.77, -175979.77, -177051.06, -173980.56, -173766.64, -174267.61, -174293.33, -174781.19, 0.00, 0.00, 0.00
155, -187500.02, -187500.02, -187500.02, -187500.02, -187500.02, -187500.02, -187500.02, -187500.02, -177034.77, -175979.77, -177051.06, -173980.56, -173766.64, -174267.61, -174293.33, -174781.19, 0.00, 0.00, 0.00
156, -187500.02, -187500.02, -187500.02, -187500.02, -187500.02, -187500.02, -187500.02, -187500.02, -177045.50, -175989.84, -177061.13, -173974.31, -173759.95, -174267.16, -174292.08, -174775.25, 0.00, -0.01, 0.97
157, -187500.02, -187500.02, -187500.02, -187500.02, -187500.02, -187500.02, -187500.02, -187500.02, -177045.50, -175989.84, -177061.13, -173974.31, -173759.95, -174267.16, -174292.08, -174775.25, 0.00, 0.00, 0.00
158, -187500.02, -187500.02, -187500.02, -187500.02, -187500.02, -187500.02, -187500.02, -187500.02, -177055.72, -175998.61, -177070.80, -173982.64, -173762.19, -174266.48, -174296.95, -174769.80, 0.00, 0.00, 0.00
159, -187500.02, -187500.02, -187500.02, -187500.02, -187500.02, -187500.02, -187500.02, -187500.02, -177055.72, -175998.61, -177070.80, -173982.64, -173762.19, -174266.48, -174296.95, -174769.80, 0.00, 0.00, 0.00
160, -187500.02, -187500.02, -187500.02, -187500.02, -187500.02, -187500.02, -187500.02, -187500.02, -177063.78, -176005.56, -177078.05, -173984.52, -173767.33, -174263.58, -174299.09, -174761.00, 0.00, 0.00, 0.00
161, -187500.02, -187500.02, -187500.02, -187500.02, -187500.02, -187500.02, -187500.02, -187500.02, -177063.78, -176005.56, -177078.05, -173984.52, -173767.33, -174263.58, -174299.09, -174761.00, 0.00, 0.00, 0.00
162, -187500.02, -187500.02, -187500.02, -187500.02, -187500.02, -187500.02, -187500.02, -187500.02, -177069.98, -176011.42, -177083.19, -173985.55, -173775.11, -174259.31, -174298.86, -174751.39, 0.00, 0.00, 0.00
163, -187500.02, -187500.02, -187500.02, -187500.02, -187500.02, -187500.02, -187500.02, -187500.02, -177069.98, -176011.42, -177083.19, -173985.55, -173775.11, -174259.31, -174298.86, -174751.39, 0.00, 0.00, 0.00
164, -187500.02, -187500.02, -187500.02, -187500.02, -187500.02, -187500.02, -187500.02, -187500.02, -177079.70, -176019.64, -177092.08, -173988.88, -173764.48, -174256.86, -174301.64, -174744.45, 0.00, 0.00, 0.00
165, -187500.02, -187500.02, -187500.02, -187500.02, -187500.02, -187500.02, -187500.02, -187500.02, -177079.70, -176019.64, -177092.08, -173988.88, -173764.48, -174256.86, -174301.64, -174744.45, 0.00, 0.00, 0.00
166, -187500.02, -187500.02, -187500.02, -187500.02, -187500.02, -187500.02, -187500.02, -187500.02, -177090.67, -176029.02, -177102.88, -173990.56, -173770.44, -174257.70, -174305.52, -174739.34, 0.00, -0.01, 0.97
167, -187500.02, -187500.02, -187500.02, -187500.02, -187500.02, -187500.02, -187500.02, -187500.02, -177090.67, -176029.02, -177102.88, -173990.56, -173770.44, -174257.70, -174305.52, -174739.34, 0.00, 0.00, 0.00
168, -187500.02, -187500.02, -187500.02, -187500.02, -187500.02, -187500.02, -187500.02, -187500.02, -177096.70, -176034.55, -177108.53, -173997.16, -173780.42, -174253.44, -174310.19, -174728.31, 0.00, 0.00, 0.00
169, -187500.02, -187500.02, -187500.02, -187500.02, -187500.02, -187500.02, -187500.02, -187500.02, -177096.70, -176034.55, -177108.53, -173997.16, -173780.42, -174253.44, -174310.19, -174728.31, 0.00, 0.00, 0.00
170, -187500.02, -187500.02, -187500.02, -187500.02, -187500.02, -187500.02, -187500.02, -187500.02, -177105.42, -176041.44, -177115.69, -173990.88, -173773.34, -174249.91, -174305.88, -174719.36, 0.00, 0.00, 0.00
171, -187500.02, -187500.02, -187500.02, -187500.02, -187500.02, -187500.02, -187500.02, -187500.02, -177105.42, -176041.44, -177115.69, -173990.88, -173773.34, -174249.91, -174305.88, -174719.36, 0.00, 0.00, 0.00
172, -187500.02, -187500.02, -187500.02, -187500.02, -187500.02, -187500.02, -187500.02, -187500.02, -177115.50, -176049.75, -177124.58, -174000.09, -173776.33, -174248.16, -174310.61, -174712.58, 0.00, 0.00, 0.00
173, -187500.02, -187500.02, -187500.02, -187500.02, -187500.02, -187500.02, -187500.02, -187500.02, -177115.50, -176049.75, -177124.58, -174000.09, -173776.33, -174248.16, -174310.61, -174712.58, 0.00, 0.00, 0.00
174, -187500.02, -187500.02, -187500.02, -187500.02, -187500.02, -187500.02, -187500.02, -187500.02, -177126.92, -176059.50, -177134.78, -173994.56, -173778.50, -174247.08, -174312.94, -174707.02, 0.00, 0.00, 0.00
175, -187500.02, -187500.02, -187500.02, -187500.02, -187500.02, -187500.02, -187500.02, -187500.02, -177126.92, -176059.50, -177134.78, -173994.56, -173778.50, -174247.08, -174312.94, -174707.02, 0.00, 0.00, 0.00
176, -187500.02, -187500.02, -187500.02, -187500.02, -187500.02, -187500.02, -187500.02, -187500.02, -177133.64, -176065.75, -177140.14, -174002.64, -173784.53, -174243.22, -174317.89, -174696.95, 0.00, -0.01, 0.98
177, -187500.02, -187500.02, -187500.02, -187500.02, -187500.02, -187500.02, -187500.02, -187500.02, -177133.64, -176065.75, -177140.14, -174002.64, -173784.53, -174243.22, -174317.89, -174696.95, 0.00, 0.00, 0.00
178, -187500.02, -187500.02, -187500.02, -187500.02, -187500.02, -187500.02, -187500.02, -187500.02, -177141.39, -176072.89, -177146.84, -174002.69, -173786.22, -174240.84, -174315.53, -174687.84, 0.00, 0.00, 0.00
179, -187500.02, -187500.02, -187500.02, -187500.02, -187500.02, -187500.02, -187500.02, -187500.02, -177141.39, -176072.89, -177146.84, -174002.69, -173786.22, -174240.84, -174315.53, -174687.84, 0.00, 0.00, 0.00
180, -187500.02, -187500.02, -187500.02, -187500.02, -187500.02, -187500.02, -187500.02, -187500.02, -177150.72, -176079.92, -177154.84, -174003.31, -173782.28, -174239.36, -174316.28, -174680.78, 0.00, 0.00, 0.00
181, -187500.02, -187500.02, -187500.02, -187500.02, -187500.02, -187500.02, -187500.02, -187500.02, -177150.72, -176079.92, -177154.84, -174003.31, -173782.28, -174239.36, -174316.28, -174680.78, 0.00, 0.00, 0.00
182, -187500.02, -187500.02, -187500.02, -187500.02, -187500.02, -187500.02, -187500.02, -187500.02, -177163.20, -176090.14, -177166.77, -174004.14, -173783.08, -174240.05, -174319.59, -174676.86, 0.00, 0.00, 0.00
183, -187500.02, -187500.02, -187500.02, -187500.02, -187500.02, -187500.02, -187500.02, -187500.02, -177163.20, -176090.14, -177166.77, -174004.14, -173783.08, -174240.05, -174319.59, -174676.86, 0.00, 0.00, 0.00
184, -187500.02, -187500.02, -187500.02, -187500.02, -187500.02, -187500.02, -187500.02, -187500.02, -177169.28, -176096.67, -177171.97, -174010.42, -173787.28, -174234.50, -174323.27, -174666.09, 0.00, 0.00, 0.00
185, -187500.02, -187500.02, -187500.02, -187500.02, -187500.02, -187500.02, -187500.02, -187500.02, -177169.28, -176096.67, -177171.97, -174010.42, -173787.28, -174234.50, -174323.27, -174666.09, 0.00, 0.00, 0.00
186, -187500.02, -187500.02, -187500.02, -187500.02, -187500.02, -187500.02, -187500.02, -187500.02, -177179.28, -176105.08, -177179.80, -174008.28, -173787.27, -174232.13, -174320.44, -174657.22, 0.00, -0.01, 0.97
187, -187500.02, -187500.02, -187500.02, -187500.02, -187500.02, -187500.02, -187500.02, -187500.02, -177179.28, -176105.08, -177179.80, -174008.28, -173787.27, -174232.13, -174320.44, -174657.22, 0.00, 0.00, 0.00
188, -187500.02, -187500.02, -187500.02, -187500.02, -187500.02, -187500.02, -187500.02, -187500.02, -177187.64, -176111.22, -177187.25, -174011.23, -173796.55, -174229.50, -174330.61, -174649.16, 0.00, 0.00, 0.00
189, -187500.02, -187500.02, -187500.02, -187500.02, -187500.02, -187500.02, -187500.02, -187500.02, -177187.64, -176111.22, -177187.25, -174011.23, -173796.55, -174229.50, -174330.61, -174649.16, 0.00, 0.00, 0.00
190, -187500.02, -187500.02, -187500.02, -187500.02, -187500.02, -187500.02, -187500.02, -187500.02, -177197.42, -176118.75, -177196.36, -174016.94, -173803.78, -174227.75, -174329.66, -174642.31, 0.00, 0.00, 0.00
191, -187500.02, -187500.02, -187500.02, -187500.02, -187500.02, -187500.02, -187500.02, -187500.02, -177197.42, -176118.75, -177196.36, -174016.94, -173803.78, -174227.75, -174329.66, -174642.31, 0.00, 0.00, 0.00
192, -187500.02, -187500.02, -187500.02, -187500.02, -187500.02, -187500.02, -187500.02, -187500.02, -177205.86, -176126.53, -177204.67, -174014.38, -173794.34, -174225.58, -174331.17, -174635.17, 0.00, 0.00, 0.00
193, -187500.02, -187500.02, -187500.02, -187500.02, -187500.02, -187500.02, -187500.02, -187500.02, -177205.86, -176126.53, -177204.67, -174014.38, -173794.34, -174225.58, -174331.17, -174635.17, 0.00, 0.00, 0.00
194, -187500.02, -187500.02, -187500.02, -187500.02, -187500.02, -187500.02, -187500.02, -187500.02, -177213.05, -176132.75, -177209.67, -174022.55, -173802.44, -174222.13, -174333.16, -174625.55, 0.00, 0.00, 0.00
195, -187500.02, -187500.02, -187500.02, -187500.02, -187500.02, -187500.02, -187500.02, -187500.02, -177213.05, -176132.75, -177209.67, -174022.55, -173802.44, -174222.13, -174333.16, -174625.55, 0.00, 0.00, 0.00
196, -187500.02, -187500.02, -187500.02, -187500.02, -187500.02, -187500.02, -187500.02, -187500.02, -177222.38, -176140.69, -177218.23, -174021.17, -173805.11, -174221.05, -174336.81, -174617.41, 0.00, -0.01, 0.97
197, -187500.02, -187500.02, -187500.02, -187500.02, -187500.02, -187500.02, -187500.02, -187500.02, -177222.38, -176140.69, -177218.23, -174021.17, -173805.11, -174221.05, -174336.81, -174617.41, 0.00, 0.00, 0.00
198, -187500.02, -187500.02, -187500.02, -187500.02, -187500.02, -187500.02, -187500.02, -187500.02, -177232.73, -176149.80, -177227.92, -174023.23, -173804.66, -174220.39, -174339.23, -174611.69, 0.00, 0.00, 0.00
199, -187500.02, -187500.02, -187500.02, -187500.02, -187500.02, -187500.02, -187500.02, -187500.02, -177232.73, -176149.80, -177227.92, -174023.23, -173804.66, -174220.39, -174339.23, -174611.69, 0.00, 0.00, 0.00
200, -187500.02, -187500.02, -187500.02, -187500.02, -187500.02, -187500.02, -187500.02, -187500.02, -177240.67, -176157.38, -177235.36, -174024.53, -173806.89, -174217.20, -174342.48, -174603.27, 0.00, 0.00, 0.00
201, -187500.02, -187500.02, -187500.02, -187500.02, -187500.02, -187500.02, -187500.02, -187500.02, -177240.67, -176157.38, -177235.36, -174024.53, -173806.89, -174217.20, -174342.48, -174603.27, 0.00, 0.00, 0.00
202, -187500.02, -187500.02, -187500.02, -187500.02, -187500.02, -187500.02, -187500.02, -187500.02, -177248.09, -176163.56, -177241.89, -174028.55, -173812.34, -174212.80, -174343.33, -174595.44, 0.00, 0.00, 0.00
203, -187500.02, -187500.02, -187500.02, -187500.02, -187500.02, -187500.02, -187500.02, -187500.02, -177248.09, -176163.56, -177241.89, -174028.55, -173812.34, -174212.80, -174343.33, -174595.44, 0.00, 0.00, 0.00
204, -187500.02, -187500.02, -187500.02, -187500.02, -187500.02, -187500.02, -187500.02, -187500.02, -177258.94, -176171.34, -177250.98, -174024.80, -173807.38, -174213.33, -174340.00, -174588.64, 0.00, 0.00, 0.00
205, -187500.02, -187500.02, -187500.02, -187500.02, -187500.02, -187500.02, -187500.02, -187500.02, -177258.94, -176171.34, -177250.98, -174024.80, -173807.38, -174213.33, -174340.00, -174588.64, 0.00, 0.00, 0.00
206, -187500.02, -187500.02, -187500.02, -187500.02, -187500.02, -187500.02, -187500.02, -187500.02, -177269.31, -176180.91, -177260.56, -174029.61, -173812.75, -174212.28, -174349.05, -174582.55, 0.00, -0.01, 0.97
207, -187500.02, -187500.02, -187500.02, -187500.02, -187500.02, -187500.02, -187500.02, -187500.02, -177269.31, -176180.91, -177260.56, -174029.61, -173812.75, -174212.28, -174349.05, -174582.55, 0.00, 0.00, 0.00
208, -187500.02, -187500.02, -187500.02, -187500.02, -187500.02, -187500.02, -187500.02, -187500.02, -177277.47, -176188.48, -177267.41, -174032.05, -173812.50, -174208.48, -174346.31, -174574.45, 0.00, 0.00, 0.00
209, -187500.02, -187500.02, -187500.02, -187500.02, -187500.02, -187500.02, -187500.02, -187500.02, -177277.47, -176188.48, -177267.41, -174032.05, -173812.50, -174208.48, -174346.31, -174574.45, 0.00, 0.00, 0.00
210, -187500.02, -187500.02, -187500.02, -187500.02, -187500.02, -187500.02, -187500.02, -187500.02, -177283.95, -176193.81, -177273.20, -174036.20, -173815.11, -174203.50, -174351.83, -174563.47, 0.00, 0.00, 0.00
211, -187500.02, -187500.02, -187500.02, -187500.02, -187500.02, -187500.02, -187500.02, -187500.02, -177283.95, -176193.81, -177273.20, -174036.20, -173815.11, -174203.50, -174351.83, -174563.47, 0.00, 0.00, 0.00
212, -187500.02, -187500.02, -187500.02, -187500.02, -187500.02, -187500.02, -187500.02, -187500.02, -177294.02, -176202.39, -177283.19, -174037.89, -173816.41, -174202.41, -174351.89, -174556.52, 0.00, 0.00, 0.00
213, -187500.02, -187500.02, -187500.02, -187500.02, -187500.02, -187500.02, -187500.02, -187500.02, -177294.02, -176202.39, -177283.19, -174037.89, -173816.41, -174202.41, -174351.89, -174556.52, 0.00, 0.00, 0.00
214, -187500.02, -187500.02, -187500.02, -187500.02, -187500.02, -187500.02, -187500.02, -187500.02, -177303.47, -176210.48, -177289.84, -174042.72, -173822.47, -174200.73, -174354.13, -174548.98, 0.00, 0.00, 0.00
215, -187500.02, -187500.02, -187500.02, -187500.02, -187500.02, -187500.02, -187500.02, -187500.02, -177303.47, -176210.48, -177289.84, -174042.72, -173822.47, -174200.73, -174354.13, -174548.98, 0.00, 0.00, 0.00
216, -187500.02, -187500.02, -187500.02, -187500.02, -187500.02, -187500.02, -187500.02, -187500.02, -177311.95, -176218.67, -177296.72, -174043.28, -173821.22, -174198.94, -174356.52, -174540.77, 0.00, -0.01, 0.97
217, -187500.02, -187500.02, -187500.02, -187500.02, -187500.02, -187500.02, -187500.02, -187500.02, -177311.95, -176218.67, -177296.72, -174043.28, -173821.22, -174198.94, -174356.52, -174540.77, 0.00, 0.00, 0.00
218, -187500.02, -187500.02, -187500.02, -187500.02, -187500.02, -187500.02, -187500.02, -187500.02, -177318.59, -176224.08, -177302.45, -174043.95, -173824.33, -174194.53, -174359.09, -174531.41, 0.00, 0.00, 0.00
219, -187500.02, -187500.02, -187500.02, -187500.02, -187500.02, -187500.02, -187500.02, -187500.02, -177318.59, -176224.08, -177302.45, -174043.95, -173824.33, -174194.53, -174359.09, -174531.41, 0.00, 0.00, 0.00
220, -187500.02, -187500.02, -187500.02, -187500.02, -187500.02, -187500.02, -187500.02, -187500.02, -177329.28, -176233.11, -177313.75, -174043.86, -173825.08, -174194.83, -174358.52, -174525.34, 0.00, 0.00, 0.00
221, -187500.02, -187500.02, -187500.02, -187500.02, -187500.02, -187500.02, -187500.02, -187500.02, -177329.28, -176233.11, -177313.75, -174043.86, -173825.08, -174194.83, -174358.52, -174525.34, 0.00, 0.00, 0.00
222, -187500.02, -187500.02, -187500.02, -187500.02, -187500.02, -187500.02, -187500.02, -187500.02, -177338.33, -176240.81, -177322.97, -174054.08, -173826.83, -174192.80, -174367.31, -174518.13, 0.00, 0.00, 0.00
223, -187500.02, -187500.02, -187500.02, -187500.02, -187500.02, -187500.02, -187500.02, -187500.02, -177338.33, -176240.81, -177322.97, -174054.08, -173826.83, -174192.80, -174367.31, -174518.13, 0.00, 0.00, 0.00
224, -187500.02, -187500.02, -187500.02, -187500.02, -187500.02, -187500.02, -187500.02, -187500.02, -177346.11, -176248.14, -177329.45, -174056.17, -173831.05, -174189.83, -174364.36, -174509.23, 0.00, 0.00, 0.00
225, -187500.02, -187500.02, -187500.02, -187500.02, -187500.02, -187500.02, -187500.02, -187500.02, -177346.11, -176248.14, -177329.45, -174056.17, -173831.05, -174189.83, -174364.36, -174509.23, 0.00, 0.00, 0.00
226, -187500.02, -187500.02, -187500.02, -187500.02, -187500.02, -187500.02, -187500.02, -187500.02, -177353.13, -176254.81, -177334.83, -174053.81, -173829.16, -174186.13, -174368.88, -174500.44, 0.00, -0.01, 0.97
227, -187500.02, -187500.02, -187500.02, -187500.02, -187500.02, -187500.02, -187500.02, -187500.02, -177353.13, -176254.81, -177334.83, -174053.81, -173829.16, -174186.13, -174368.88, -174500.44, 0.00, 0.00, 0.00
228, -187500.02, -187500.02, -187500.02, -187500.02, -187500.02, -187500.02, -187500.02, -187500.02, -177362.72, -176263.48, -177343.67, -174060.45, -173832.89, -174184.33, -174370.89, -174493.30, 0.00, 0.00, 0.00
229, -187500.02, -187500.02, -187500.02, -187500.02, -187500.02, -187500.02, -187500.02, -187500.02, -177362.72, -176263.48, -177343.67, -174060.45, -173832.89, -174184.33, -174370.89, -174493.30, 0.00, 0.00, 0.00
230, -187500.02, -187500.02, -187500.02, -187500.02, -187500.02, -187500.02, -187500.02, -187500.02, -177372.98, -176271.02, -177352.48, -174059.64, -173836.70, -174182.91, -174373.38, -174486.23, 0.00, 0.00, 0.00
231, -187500.02, -187500.02, -187500.02, -187500.02, -187500.02, -187500.02, -187500.02, -187500.02, -177372.98, -176271.02, -177352.48, -174059.64, -173836.70, -174182.91, -174373.38, -174486.23, 0.00, 0.00, 0.00
232, -187500.02, -187500.02, -187500.02, -187500.02, -187500.02, -187500.02, -187500.02, -187500.02, -177382.41, -176278.88, -177360.33, -174056.02, -173833.84, -174180.66, -174372.23, -174477.89, 0.00, 0.00, 0.00
233, -187500.02, -187500.02, -187500.02, -187500.02, -187500.02, -187500.02, -187500.02, -187500.02, -177382.41, -176278.88, -177360.33, -174056.02, -173833.84, -174180.66, -174372.23, -174477.89, 0.00, 0.00, 0.00
234, -187500.02, -187500.02, -187500.02, -187500.02, -187500.02, -187500.02, -187500.02, -187500.02, -177390.23, -176286.06, -177367.13, -174058.64, -173836.19, -174177.59, -174373.66, -174469.84, 0.00, 0.00, 0.00
235, -187500.02, -187500.02, -187500.02, -187500.02, -187500.02, -187500.02, -187500.02, -187500.02, -177390.23, -176286.06, -177367.13, -174058.64, -173836.19, -174177.59, -174373.66, -174469.84, 0.00, 0.00, 0.00
236, -187500.02, -187500.02, -187500.02, -187500.02, -187500.02, -187500.02, -187500.02, -187500.02, -177399.94, -176294.19, -177376.38, -174062.42, -173843.19, -174176.08, -174376.13, -174462.88, 0.00, -0.01, 0.97
237, -187500.02, -187500.02, -187500.02, -187500.02, -187500.02, -187500.02, -187500.02, -187500.02, -177399.94, -176294.19, -177376.38, -174062.42, -173843.19, -174176.08, -174376.13, -174462.88, 0.00, 0.00, 0.00
238, -187500.02, -187500.02, -187500.02, -187500.02, -187500.02, -187500.02, -187500.02, -187500.02, -177409.92, -176303.09, -177386.08, -174067.42, -173838.63, -174174.80, -174382.72, -174456.16, 0.00, 0.00, 0.00
239, -187500.02, -187500.02, -187500.02, -187500.02, -187500.02, -187500.02, -187500.02, -187500.02, -177409.92, -176303.09, -177386.08, -174067.42, -173838.63, -174174.80, -174382.72, -174456.16, 0.00, 0.00, 0.00
240, -187500.02, -187500.02, -187500.02, -187500.02, -187500.02, -187500.02, -187500.02, -187500.02, -177417.02, -176310.13, -177392.84, -174068.45, -173843.13, -174171.81, -174382.72, -174447.05, 0.00, 0.00, 0.00
241, -187500.02, -187500.02, -187500.02, -187500.02, -187500.02, -187500.02, -187500.02, -187500.02, -177417.02, -176310.13, -177392.84, -174068.45, -173843.13, -174171.81, -174382.72, -174447.05, 0.00, 0.00, 0.00
242, -187500.02, -187500.02, -187500.02, -187500.02, -187500.02, -187500.02, -187500.02, -187500.02, -177424.75, -176317.53, -177399.33, -174071.48, -173846.09, -174169.23, -174386.14, -174438.38, 0.00, 0.00, 0.00
243, -187500.02, -187500.02, -187500.02, -187500.02, -187500.02, -187500.02, -187500.02, -187500.02, -177424.75, -176317.53, -177399.33, -174071.48, -173846.09, -174169.23, -174386.14, -174438.38, 0.00, 0.00, 0.00
244, -187500.02, -187500.02, -187500.02, -187500.02, -187500.02, -187500.02, -187500.02, -187500.02, -177434.31, -176324.48, -177406.22, -174077.61, -173850.25, -174166.94, -174389.83, -174430.84, 0.00, 0.00, 0.00
245, -187500.02, -187500.02, -187500.02, -187500.02, -187500.02, -187500.02, -187500.02, -187500.02, -177434.31, -176324.48, -177406.22, -174077.61, -173850.25, -174166.94, -174389.83, -174430.84, 0.00, 0.00, 0.00
246, -187500.02, -187500.02, -187500.02, -187500.02, -187500.02, -187500.02, -187500.02, -187500.02, -177444.91, -176334.63, -177416.09, -174074.48, -173841.98, -174165.45, -174389.69, -174424.52, 0.00, -0.01, 0.97
247, -187500.02, -187500.02, -187500.02, -187500.02, -187500.02, -187500.02, -187500.02, -187500.02, -177444.91, -176334.63, -177416.09, -174074.48, -173841.98, -174165.45, -174389.69, -174424.52, 0.00, 0.00, 0.00
248, -187500.02, -187500.02, -187500.02, -187500.02, -187500.02, -187500.02, -187500.02, -187500.02, -177453.31, -176342.16, -177423.22, -174077.61, -173854.55, -174163.67, -174393.53, -174416.53, 0.00, 0.00, 0.00
249, -187500.02, -187500.02, -187500.02, -187500.02, -187500.02, -187500.02, -187500.02, -187500.02, -177453.31, -176342.16, -177423.22, -174077.61, -173854.55, -174163.67, -174393.53, -174416.53, 0.00, 0.00, 0.00
250, -187500.02, -187500.02, -187500.02, -187500.02, -187500.02, -187500.02, -187500.02, -187500.02, -177459.72, -176347.84, -177428.34, -174081.22, -173850.39, -174158.94, -174393.89, -174406.31, 0.00, 0.00, 0.00
251, -187500.02, -187500.02, -187500.02, -187500.02, -187500.02, -187500.02, -187500.02, -187500.02, -177459.72, -176347.84, -177428.34, -174081.22, -173850.39, -174158.94, -174393.89, -174406.31, 0.00, 0.00, 0.00
252, -187500.02, -187500.02, -187500.02, -187500.02, -187500.02, -187500.02, -187500.02, -187500.02, -177471.34, -176356.55, -177438.33, -174082.98, -173854.19, -174157.97, -174398.66, -174399.34, 0.00, 0.00, 0.00
253, -187500.02, -187500.02, -187500.02, -187500.02, -187500.02, -187500.02, -187500.02, -187500.02, -177471.34, -176356.55, -177438.33, -174082.98, -173854.19, -174157.97, -174398.66, -174399.34, 0.00, 0.00, 0.00
254, -187500.02, -187500.02, -187500.02, -187500.02, -187500.02, -187500.02, -187500.02, -187500.02, -177481.00, -176365.94, -177448.08, -174083.03, -173858.81, -174142.25, -174401.33, -174392.28, 0.00, 0.00, 0.00
255, -187500.02, -187500.02, -187500.02, -187500.02, -187500.02, -187500.02, -187500.02, -187500.02, -177481.00, -176365.94, -177448.08, -174083.03, -173858.81, -174142.25, -174401.33, -174392.28, 0.00, 0.00, 0.00
0, -187500.02, -187500.02, -187500.02, -187500.02, -187500.02, -187500.02, -187500.02, -187500.02, -177466.45, -176351.81, -177431.72, -174101.67, -173905.38, -173871.02, -174415.39, -174361.14, 0.00, -0.01, 0.97
1, -187500.02, -187500.02, -187500.02, -187500.02, -187500.02, -187500.02, -187500.02, -187500.02, -177466.45, -176351.81, -177431.72, -174101.67, -173905.38, -173871.02, -174415.39, -174361.14, 0.00, 0.00, 0.00
2, -187500.02, -187500.02, -187500.02, -187500.02, -187500.02, -187500.02, -187500.02, -187500.02, -177422.95, -176307.84, -177387.73, -174100.81, -173902.13, -174132.84, -174414.64, -174301.27, 0.00, 0.00, 0.00
3, -187500.02, -187500.02, -187500.02, -187500.02, -187500.02, -187500.02, -187500.02, -187500.02, -177422.95, -176307.84, -177387.73, -174100.81, -173902.13, -174132.84, -174414.64, -174301.27, 0.00, 0.00, 0.00
4, -187500.02, -187500.02, -187500.02, -187500.02, -187500.02, -187500.02, -187500.02, -187500.02, -177384.28, -176268.75, -177348.13, -174095.03, -173888.59, -174630.78, -174403.75, -174246.80, 0.00, 0.00, 0.00
5, -187500.02, -187500.02, -187500.02, -187500.02, -187500.02, -187500.02, -187500.02, -187500.02, -177384.28, -176268.75, -177348.13, -174095.03, -173888.59, -174630.78, -174403.75, -174246.80, 0.00, 0.00, 0.00
6, -187500.02, -187500.02, -187500.02, -187500.02, -187500.02, -187500.02, -187500.02, -187500.02, -177381.34, -176264.69, -177344.66, -174085.70, -173867.16, -175056.89, -174393.11, -174226.19, 0.00, 0.00, 0.00
7, -187500.02, -187500.02, -187500.02, -187500.02, -187500.02, -187500.02, -187500.02, -187500.02, -177381.34, -176264.69, -177344.66, -174085.70, -173867.16, -175056.89, -174393.11, -174226.19, 0.00, 0.00, 0.00
8, -187500.02, -187500.02, -187500.02, -187500.02, -187500.02, -187500.02, -187500.02, -187500.02, -177388.09, -176270.81, -177350.47, -174082.64, -173867.80, -175052.80, -174395.33, -174215.95, 0.00, 0.00, 0.00
9, -187500.02, -187500.02, -187500.02, -187500.02, -187500.02, -187500.02, -187500.02, -187500.02, -177388.09, -176270.81, -177350.47, -174082.64, -173867.80, -175052.80, -174395.33, -174215.95, 0.00, 0.00, 0.00
10, -187500.02, -187500.02, -187500.02, -187500.02, -187500.02, -187500.02, -187500.02, -187500.02, -177397.34, -176279.58, -177358.67, -174083.53, -173862.19, -175050.30, -174392.22, -174209.11, 0.00, -0.01, 0.97
11, -187500.02, -187500.02, -187500.02, -187500.02, -187500.02, -187500.02, -187500.02, -187500.02, -177397.34, -176279.58, -177358.67, -174083.53, -173862.19, -175050.30, -174392.22, -174209.11, 0.00, 0.00, 0.00
12, -187500.02, -187500.02, -187500.02, -187500.02, -187500.02, -187500.02, -187500.02, -187500.02, -177407.28, -176287.52, -177367.50, -174085.61, -173861.98, -175047.88, -174393.80, -174201.89, 0.00, 0.00, 0.00
13, -187500.02, -187500.02, -187500.02, -187500.02, -187500.02, -187500.02, -187500.02, -187500.02, -177407.28, -176287.52, -177367.50, -174085.61, -173861.98, -175047.88, -174393.80, -174201.89, 0.00, 0.00, 0.00
14, -187500.02, -187500.02, -187500.02, -187500.02, -187500.02, -187500.02, -187500.02, -187500.02, -177418.69, -176296.89, -177377.72, -174091.83, -173873.36, -175046.47, -174393.38, -174195.47, 0.00, 0.00, 0.00
15, -187500.02, -187500.02, -187500.02, -187500.02, -187500.02, -187500.02, -187500.02, -187500.02, -177418.69, -176296.89, -177377.72, -174091.83, -173873.36, -175046.47, -174393.38, -174195.47, 0.00, 0.00, 0.00
16, -187500.02, -187500.02, -187500.02, -187500.02, -187500.02, -187500.02, -187500.02, -187500.02, -177417.45, -176294.13, -177375.14, -174101.42, -173890.00, -175032.95, -174415.59, -173992.64, 0.00, 0.00, 0.00
17, -187500.02, -187500.02, -187500.02, -187500.02, -187500.02, -187500.02, -187500.02, -187500.02, -177417.45, -176294.13, -177375.14, -174101.42, -173890.00, -175032.95, -174415.59, -173992.64, 0.00, 0.00, 0.00
18, -187500.02, -187500.02, -187500.02, -187500.02, -187500.02, -187500.02, -187500.02, -187500.02, -177371.06, -176248.94, -177329.02, -174110.38, -173914.56, -174976.80, -174427.95, -174039.66, 0.00, 0.00, 0.00
19, -187500.02, -187500.02, -187500.02, -187500.02, -187500.02, -187500.02, -187500.02, -187500.02, -177371.06, -176248.94, -177329.02, -174110.38, -173914.56, -174976.80, -174427.95, -174039.66, 0.00, 0.00, 0.00
20, -187500.02, -187500.02, -187500.02, -187500.02, -187500.02, -187500.02, -187500.02, -187500.02, -177317.91, -176195.52, -177274.77, -174109.11, -173906.02, -174912.52, -174421.03, -174449.56, 0.00, -0.01, 0.97
21, -187500.02, -187500.02, -187500.02, -187500.02, -187500.02, -187500.02, -187500.02, -187500.02, -177317.91, -176195.52, -177274.77, -174109.11, -173906.02, -174912.52, -174421.03, -174449.56, 0.00, 0.00, 0.00
22, -187500.02, -187500.02, -187500.02, -187500.02, -187500.02, -187500.02, -187500.02, -187500.02, -177289.06, -176165.30, -177244.77, -174093.66, -173880.31, -174872.89, -174405.92, -175111.83, 0.00, 0.00, 0.00
23, -187500.02, -187500.02, -187500.02, -187500.02, -187500.02, -187500.02, -187500.02, -187500.02, -177289.06, -176165.30, -177244.77, -174093.66, -173880.31, -174872.89, -174405.92, -175111.83, 0.00, 0.00, 0.00
24, -187500.02, -187500.02, -187500.02, -187500.02, -187500.02, -187500.02, -187500.02, -187500.02, -177294.34, -176170.09, -177248.86, -174088.70, -173869.39, -174867.50, -174401.30, -175203.05, 0.00, 0.00, 0.00
25, -187500.02, -187500.02, -187500.02, -187500.02, -187500.02, -187500.02, -187500.02, -187500.02, -177294.34, -176170.09, -177248.86, -174088.70, -173869.39, -174867.50, -174401.30, -175203.05, 0.00, 0.00, 0.00
26, -187500.02, -187500.02, -187500.02, -187500.02, -187500.02, -187500.02, -187500.02, -187500.02, -177301.16, -176176.52, -177254.47, -174095.30, -173873.13, -174863.39, -174407.39, -175191.14, 0.00, 0.00, 0.00
27, -187500.02, -187500.02, -187500.02, -187500.02, -187500.02, -187500.02, -187500.02, -187500.02, -177301.16, -176176.52, -177254.47, -174095.30, -173873.13, -174863.39, -174407.39, -175191.14, 0.00, 0.00, 0.00
28, -187500.02, -187500.02, -187500.02, -187500.02, -187500.02, -187500.02, -187500.02, -187500.02, -177311.23, -176183.64, -177262.20, -174094.73, -173881.95, -174860.53, -174409.27, -175181.52, 0.00, 0.00, 0.00
29, -187500.02, -187500.02, -187500.02, -187500.02, -187500.02, -187500.02, -187500.02, -187500.02, -177311.23, -176183.64, -177262.20, -174094.73, -173881.95, -174860.53, -174409.27, -175181.52, 0.00, 0.00, 0.00
30, -187500.02, -187500.02, -187500.02, -187500.02, -187500.02, -187500.02, -187500.02, -187500.02, -177322.39, -176194.13, -177272.27, -174094.33, -173871.48, -174860.42, -174406.55, -175175.33, 0.00, -0.01, 0.97
31, -187500.02, -187500.02, -187500.02, -187500.02, -187500.02, -187500.02, -187500.02, -187500.02, -177322.39, -176194.13, -177272.27, -174094.33, -173871.48, -174860.42, -174406.55, -175175.33, 0.00, 0.00, 0.00
32, -187500.02, -187500.02, -187500.02, -187500.02, -187500.02, -187500.02, -187500.02, -187500.02, -177331.16, -176202.70, -177280.34, -174093.16, -173876.83, -174857.25, -174410.88, -175166.25, 0.00, 0.00, 0.00
33, -187500.02, -187500.02, -187500.02, -187500.02, -187500.02, -187500.02, -187500.02, -187500.02, -177331.16, -176202.70, -177280.34, -174093.16, -173876.83, -174857.25, -174410.88, -175166.25, 0.00, 0.00, 0.00
34, -187500.02, -187500.02, -187500.02, -187500.02, -187500.02, -187500.02, -187500.02, -187500.02, -177338.83, -176209.45, -177286.91, -174093.59, -173879.59, -174854.20, -174409.22, -175155.11, 0.00, 0.00, 0.00
35, -187500.02, -187500.02, -187500.02, -187500.02, -187500.02, -187500.02, -187500.02, -187500.02, -177338.83, -176209.45, -177286.91, -174093.59, -173879.59, -174854.20, -174409.22, -175155.11, 0.00, 0.00, 0.00
36, -187500.02, -187500.02, -187500.02, -187500.02, -187500.02, -187500.02, -187500.02, -187500.02, -177348.75, -176218.52, -177295.27, -174098.72, -173881.45, -174852.81, -174414.45, -175148.36, 0.00, 0.00, 0.00
37, -187500.02, -187500.02, -187500.02, -187500.02, -187500.02, -187500.02, -187500.02, -187500.02, -177348.75, -176218.52, -177295.27, -174098.72, -173881.45, -174852.81, -174414.45, -175148.36, 0.00, 0.00, 0.00
38, -187500.02, -187500.02, -187500.02, -187500.02, -187500.02, -187500.02, -187500.02, -187500.02, -177359.70, -176227.41, -177304.80, -174099.86, -173881.48, -174851.16, -174415.34, -175141.20, 0.00, 0.00, 0.00
39, -187500.02, -187500.02, -187500.02, -187500.02, -187500.02, -187500.02, -187500.02, -187500.02, -177359.70, -176227.41, -177304.80, -174099.86, -173881.48, -174851.16, -174415.34, -175141.20, 0.00, 0.00, 0.00
40, -187500.02, -187500.02, -187500.02, -187500.02, -187500.02, -187500.02, -187500.02, -187500.02, -177368.64, -176234.67, -177312.77, -174098.80, -173883.64, -174847.97, -174416.00, -175132.17, 0.00, -0.01, 0.98
41, -187500.02, -187500.02, -187500.02, -187500.02, -187500.02, -187500.02, -187500.02, -187500.02, -177368.64, -176234.67, -177312.77, -174098.80, -173883.64, -174847.97, -174416.00, -175132.17, 0.00, 0.00, 0.00
42, -187500.02, -187500.02, -187500.02, -187500.02, -187500.02, -187500.02, -187500.02, -187500.02, -177376.00, -176241.20, -177319.42, -174098.52, -173883.16, -174844.81, -174416.67, -175122.45, 0.00, 0.00, 0.00
43, -187500.02, -187500.02, -187500.02, -187500.02, -187500.02, -187500.02, -187500.02, -187500.02, -177376.00, -176241.20, -177319.42, -174098.52, -173883.16, -174844.81, -174416.67, -175122.45, 0.00, 0.00, 0.00
44, -187500.02, -187500.02, -187500.02, -187500.02, -187500.02, -187500.02, -187500.02, -187500.02, -177387.39, -176251.03, -177329.75, -174103.55, -173889.48, -174844.33, -174419.06, -175116.30, 0.00, 0.00, 0.00
45, -187500.02, -187500.02, -187500.02, -187500.02, -187500.02, -187500.02, -187500.02, -187500.02, -177387.39, -176251.03, -177329.75, -174103.55, -173889.48, -174844.33, -174419.06, -175116.30, 0.00, 0.00, 0.00
46, -187500.02, -187500.02, -187500.02, -187500.02, -187500.02, -187500.02, -187500.02, -187500.02, -177396.61, -176258.08, -177337.45, -174109.28, -173886.31, -174841.78, -174423.69, -175107.66, 0.00, 0.00, 0.00
47, -187500.02, -187500.02, -187500.02, -187500.02, -187500.02, -187500.02, -187500.02, -187500.02, -177396.61, -176258.08, -177337.45, -174109.28, -173886.31, -174841.78, -174423.69, -175107.66, 0.00, 0.00, 0.00
48, -187500.02, -187500.02, -187500.02, -187500.02, -187500.02, -187500.02, -187500.02, -187500.02, -177403.98, -176264.70, -177344.50, -174118.97, -173901.33, -174837.89, -174429.28, -175098.20, 0.00, 0.00, 0.00
49, -187500.02, -187500.02, -187500.02, -187500.02, -187500.02, -187500.02, -187500.02, -187500.02, -177403.98, -176264.70, -177344.50, -174118.97, -173901.33, -174837.89, -174429.28, -175098.20, 0.00, 0.00, 0.00
50, -187500.02, -187500.02, -187500.02, -187500.02, -187500.02, -187500.02, -187500.02, -187500.02, -177411.36, -176271.95, -177351.05, -174111.70, -173893.95, -174835.09, -174425.52, -175089.52, -0.00, -0.02, 0.97
51, -187500.02, -187500.02, -187500.02, -187500.02, -187500.02, -187500.02, -187500.02, -187500.02, -177411.36, -176271.95, -177351.05, -174111.70, -173893.95, -174835.09, -174425.52, -175089.52, 0.00, 0.00, 0.00
52, -187500.02, -187500.02, -187500.02, -187500.02, -187500.02, -187500.02, -187500.02, -187500.02, -177422.67, -176281.77, -177361.67, -174114.16, -173892.50, -174834.78, -174427.94, -175083.63, 0.00, 0.00, 0.00
53, -187500.02, -187500.02, -187500.02, -187500.02, -187500.02, -187500.02, -187500.02, -187500.02, -177422.67, -176281.77, -177361.67, -174114.16, -173892.50, -174834.78, -174427.94, -175083.63, 0.00, 0.00, 0.00
54, -187500.02, -187500.02, -187500.02, -187500.02, -187500.02, -187500.02, -187500.02, -187500.02, -177433.44, -176290.45, -177370.03, -174118.05, -173901.94, -174833.42, -174435.17, -175076.05, 0.00, 0.00, 0.00
55, -187500.02, -187500.02, -187500.02, -187500.02, -187500.02, -187500.02, -187500.02, -187500.02, -177433.44, -176290.45, -177370.03, -174118.05, -173901.94, -174833.42, -174435.17, -175076.05, 0.00, 0.00, 0.00
56, -187500.02, -187500.02, -187500.02, -187500.02, -187500.02, -187500.02, -187500.02, -187500.02, -177441.86, -176298.16, -177377.56, -174118.97, -173904.23, -174830.64, -174434.03, -175066.97, 0.00, 0.00, 0.00
57, -187500.02, -187500.02, -187500.02, -187500.02, -187500.02, -187500.02, -187500.02, -187500.02, -177441.86, -176298.16, -177377.56, -174118.97, -173904.23, -174830.64, -174434.03, -175066.97, 0.00, 0.00, 0.00
58, -187500.02, -187500.02, -187500.02, -187500.02, -187500.02, -187500.02, -187500.02, -187500.02, -177448.81, -176304.16, -177382.92, -174122.31, -173900.81, -174825.69, -174435.80, -175056.83, 0.00, 0.00, 0.00
59, -187500.02, -187500.02, -187500.02, -187500.02, -187500.02, -187500.02, -187500.02, -187500.02, -177448.81, -176304.16, -177382.92, -174122.31, -173900.81, -174825.69, -174435.80, -175056.83, 0.00, 0.00, 0.00
60, -187500.02, -187500.02, -187500.02, -187500.02, -187500.02, -187500.02, -187500.02, -187500.02, -177460.59, -176314.56, -177393.86, -174125.81, -173904.48, -174826.64, -174437.28, -175051.86, 0.00, -0.01, 0.97
61, -187500.02, -187500.02, -187500.02, -187500.02, -187500.02, -187500.02, -187500.02, -187500.02, -177460.59, -176314.56, -177393.86, -174125.81, -173904.48, -174826.64, -174437.28, -175051.86, 0.00, 0.00, 0.00
62, -187500.02, -187500.02, -187500.02, -187500.02, -187500.02, -187500.02, -187500.02, -187500.02, -177470.78, -176322.80, -177402.50, -174127.08, -173907.00, -174825.11, -174442.03, -175044.23, 0.00, 0.00, 0.00
63, -187500.02, -187500.02, -187500.02, -187500.02, -187500.02, -187500.02, -187500.02, -187500.02, -177470.78, -176322.80, -177402.50, -174127.08, -173907.00, -174825.11, -174442.03, -175044.23, 0.00, 0.00, 0.00
64, -187500.02, -187500.02, -187500.02, -187500.02, -187500.02, -187500.02, -187500.02, -187500.02, -177480.48, -176330.06, -177410.86, -174129.77, -173910.45, -174823.14, -174444.31, -175036.53, 0.00, 0.00, 0.00
65, -187500.02, -187500.02, -187500.02, -187500.02, -187500.02, -187500.02, -187500.02, -187500.02, -177480.48, -176330.06, -177410.86, -174129.77, -173910.45, -174823.14, -174444.31, -175036.53, 0.00, 0.00, 0.00
66, -187500.02, -187500.02, -187500.02, -187500.02, -187500.02, -187500.02, -187500.02, -187500.02, -177488.16, -176336.70, -177417.33, -174129.22, -173912.59, -174819.22, -174443.25, -175027.05, 0.00, 0.00, 0.00
67, -187500.02, -187500.02, -187500.02, -187500.02, -187500.02, -187500.02, -187500.02, -187500.02, -177488.16, -176336.70, -177417.33, -174129.22, -173912.59, -174819.22, -174443.25, -175027.05, 0.00, 0.00, 0.00
68, -187500.02, -187500.02, -187500.02, -187500.02, -187500.02, -187500.02, -187500.02, -187500.02, -177499.11, -176346.20, -177427.56, -174134.17, -173911.72, -174818.42, -174446.31, -175021.02, 0.00, 0.00, 0.00
69, -187500.02, -187500.02, -187500.02, -187500.02, -187500.02, -187500.02, -187500.02, -187500.02, -177499.11, -176346.20, -177427.56, -174134.17, -173911.72, -174818.42, -174446.31, -175021.02, 0.00, 0.00, 0.00
70, -187500.02, -187500.02, -187500.02, -187500.02, -187500.02, -187500.02, -187500.02, -187500.02, -177509.09, -176354.83, -177437.59, -174138.23, -173917.94, -174817.34, -174450.78, -175013.39, 0.00, -0.01, 0.97
71, -187500.02, -187500.02, -187500.02, -187500.02, -187500.02, -187500.02, -187500.02, -187500.02, -177509.09, -176354.83, -177437.59, -174138.23, -173917.94, -174817.34, -174450.78, -175013.39, 0.00, 0.00, 0.00
72, -187500.02, -187500.02, -187500.02, -187500.02, -187500.02, -187500.02, -187500.02, -187500.02, -177516.77, -176362.50, -177444.81, -174138.05, -173927.25, -174814.63, -174451.25, -175004.05, 0.00, 0.00, 0.00
73, -187500.02, -187500.02, -187500.02, -187500.02, -187500.02, -187500.02, -187500.02, -187500.02, -177516.77, -176362.50, -177444.81, -174138.05, -173927.25, -174814.63, -174451.25, -175004.05, 0.00, 0.00, 0.00
74, -187500.02, -187500.02, -187500.02, -187500.02, -187500.02, -187500.02, -187500.02, -187500.02, -177526.28, -176371.03, -177453.42, -174136.84, -173914.02, -174812.41, -174452.97, -174996.31, 0.00, 0.00, 0.00
75, -187500.02, -187500.02, -187500.02, -187500.02, -187500.02, -187500.02, -187500.02, -187500.02, -177526.28, -176371.03, -177453.42, -174136.84, -173914.02, -174812.41, -174452.97, -174996.31, 0.00, 0.00, 0.00
76, -187500.02, -187500.02, -187500.02, -187500.02, -187500.02, -187500.02, -187500.02, -187500.02, -177537.78, -176380.83, -177463.38, -174144.41, -173927.50, -174812.34, -174456.28, -174991.22, 0.00, 0.00, 0.00
77, -187500.02, -187500.02, -187500.02, -187500.02, -187500.02, -187500.02, -187500.02, -187500.02, -177537.78, -176380.83, -177463.38, -174144.41, -173927.50, -174812.34, -174456.28, -174991.22, 0.00, 0.00, 0.00
78, -187500.02, -187500.02, -187500.02, -187500.02, -187500.02, -187500.02, -187500.02, -187500.02, -177548.02, -176389.34, -177471.80, -174144.16, -173920.84, -174811.09, -174458.47, -174984.88, 0.00, 0.00, 0.00
79, -187500.02, -187500.02, -187500.02, -187500.02, -187500.02, -187500.02, -187500.02, -187500.02, -177548.02, -176389.34, -177471.80, -174144.16, -173920.84, -174811.09, -174458.47, -174984.88, 0.00, 0.00, 0.00
80, -187500.02, -187500.02, -187500.02, -187500.02, -187500.02, -187500.02, -187500.02, -187500.02, -177556.63, -176396.61, -177479.81, -174149.86, -173934.45, -174808.94, -174463.14, -174976.00, 0.00, -0.01, 0.97
81, -187500.02, -187500.02, -187500.02, -187500.02, -187500.02, -187500.02, -187500.02, -187500.02, -177556.63, -176396.61, -177479.81, -174149.86, -173934.45, -174808.94, -174463.14, -174976.00, 0.00, 0.00, 0.00
82, -187500.02, -187500.02, -187500.02, -187500.02, -187500.02, -187500.02, -187500.02, -187500.02, -177564.52, -176403.72, -177486.53, -174152.63, -173937.31, -174805.34, -174465.89, -174966.50, 0.00, 0.00, 0.00
83, -187500.02, -187500.02, -187500.02, -187500.02, -187500.02, -187500.02, -187500.02, -187500.02, -177564.52, -176403.72, -177486.53, -174152.63, -173937.31, -174805.34, -174465.89, -174966.50, 0.00, 0.00, 0.00
84, -187500.02, -187500.02, -187500.02, -187500.02, -187500.02, -187500.02, -187500.02, -187500.02, -177575.80, -176414.38, -177496.97, -174153.50, -173938.98, -174804.30, -174467.45, -174960.80, 0.00, 0.00, 0.00
85, -187500.02, -187500.02, -187500.02, -187500.02, -187500.02, -187500.02, -187500.02, -187500.02, -177575.80, -176414.38, -177496.97, -174153.50, -173938.98, -174804.30, -174467.45, -174960.80, 0.00, 0.00, 0.00
86, -187500.02, -187500.02, -187500.02, -187500.02, -187500.02, -187500.02, -187500.02, -187500.02, -177588.16, -176425.31, -177507.64, -174155.48, -173933.53, -174804.73, -174468.08, -174955.50, 0.00, 0.00, 0.00
87, -187500.02, -187500.02, -187500.02, -187500.02, -187500.02, -187500.02, -187500.02, -187500.02, -177588.16, -176425.31, -177507.64, -174155.48, -173933.53, -174804.73, -174468.08, -174955.50, 0.00, 0.00, 0.00
88, -187500.02, -187500.02, -187500.02, -187500.02, -187500.02, -187500.02, -187500.02, -187500.02, -177597.72, -176433.95, -177516.14, -174155.16, -173936.95, -174803.36, -174469.84, -174948.30, 0.00, 0.00, 0.00
89, -187500.02, -187500.02, -187500.02, -187500.02, -187500.02, -187500.02, -187500.02, -187500.02, -177597.72, -176433.95, -177516.14, -174155.16, -173936.95, -174803.36, -174469.84, -174948.30, 0.00, 0.00, 0.00
90, -187500.02, -187500.02, -187500.02, -187500.02, -187500.02, -187500.02, -187500.02, -187500.02, -177607.41, -176442.70, -177523.73, -174162.27, -173945.31, -174801.28, -174474.56, -174941.17, 0.00, -0.02, 0.96
91, -187500.02, -187500.02, -187500.02, -187500.02, -187500.02, -187500.02, -187500.02, -187500.02, -177607.41, -176442.70, -177523.73, -174162.27, -173945.31, -174801.28, -174474.56, -174941.17, 0.00, 0.00, 0.00
92, -187500.02, -187500.02, -187500.02, -187500.02, -187500.02, -187500.02, -187500.02, -187500.02, -177618.27, -176451.70, -177533.02, -174164.86, -173946.03, -174800.22, -174478.06, -174934.20, 0.00, 0.00, 0.00
93, -187500.02, -187500.02, -187500.02, -187500.02, -187500.02, -187500.02, -187500.02, -187500.02, -177618.27, -176451.70, -177533.02, -174164.86, -173946.03, -174800.22, -174478.06, -174934.20, 0.00, 0.00, 0.00
94, -187500.02, -187500.02, -187500.02, -187500.02, -187500.02, -187500.02, -187500.02, -187500.02, -177630.42, -176461.89, -177544.53, -174164.09, -173944.75, -174801.91, -174478.84, -174930.11, 0.00, 0.00, 0.00
95, -187500.02, -187500.02, -187500.02, -187500.02, -187500.02, -187500.02, -187500.02, -187500.02, -177630.42, -176461.89, -177544.53, -174164.09, -173944.75, -174801.91, -174478.84, -174930.11, 0.00, 0.00, 0.00
96, -187500.02, -187500.02, -187500.02, -187500.02, -187500.02, -187500.02, -187500.02, -187500.02, -177639.83, -176470.34, -177553.36, -174164.42, -173951.03, -174800.22, -174482.56, -174923.72, 0.00, 0.00, 0.00
97, -187500.02, -187500.02, -187500.02, -187500.02, -187500.02, -187500.02, -187500.02, -187500.02, -177639.83, -176470.34, -177553.36, -174164.42, -173951.03, -174800.22, -174482.56, -174923.72, 0.00, 0.00, 0.00
98, -187500.02, -187500.02, -187500.02, -187500.02, -187500.02, -187500.02, -187500.02, -187500.02, -177649.84, -176479.78, -177562.25, -174170.69, -173949.61, -174798.38, -174483.56, -174915.92, 0.00, 0.00, 0.00
99, -187500.02, -187500.02, -187500.02, -187500.02, -187500.02, -187500.02, -187500.02, -187500.02, -177649.84, -176479.78, -177562.25, -174170.69, -173949.61, -174798.38, -174483.56, -174915.92, 0.00, 0.00, 0.00
100, -187500.02, -187500.02, -187500.02, -187500.02, -187500.02, -187500.02, -187500.02, -187500.02, -177661.38, -176489.55, -177573.27, -174166.80, -173944.98, -174798.86, -174484.58, -174910.39, 0.00, -0.01, 0.96
101, -187500.02, -187500.02, -187500.02, -187500.02, -187500.02, -187500.02, -187500.02, -187500.02, -177661.38, -176489.55, -177573.27, -174166.80, -173944.98, -174798.86, -174484.58, -174910.39, 0.00, 0.00, 0.00
102, -187500.02, -187500.02, -187500.02, -187500.02, -187500.02, -187500.02, -187500.02, -187500.02, -177674.19, -176500.48, -177586.30, -174176.83, -173958.09, -174800.56, -174488.84, -174906.44, 0.00, 0.00, 0.00
103, -187500.02, -187500.02, -187500.02, -187500.02, -187500.02, -187500.02, -187500.02, -187500.02, -177674.19, -176500.48, -177586.30, -174176.83, -173958.09, -174800.56, -174488.84, -174906.44, 0.00, 0.00, 0.00
104, -187500.02, -187500.02, -187500.02, -187500.02, -187500.02, -187500.02, -187500.02, -187500.02, -177681.39, -176507.00, -177592.61, -174181.97, -173967.56, -174796.67, -174492.63, -174896.41, 0.00, 0.00, 0.00
105, -187500.02, -187500.02, -187500.02, -187500.02, -187500.02, -187500.02, -187500.02, -187500.02, -177681.39, -176507.00, -177592.61, -174181.97, -173967.56, -174796.67, -174492.63, -174896.41, 0.00, 0.00, 0.00
106, -187500.02, -187500.02, -187500.02, -187500.02, -187500.02, -187500.02, -187500.02, -187500.02, -177691.78, -176517.06, -177602.02, -174176.72, -173956.05, -174796.64, -174492.78, -174890.17, 0.00, 0.00, 0.00
107, -187500.02, -187500.02, -187500.02, -187500.02, -187500.02, -187500.02, -187500.02, -187500.02, -177691.78, -176517.06, -177602.02, -174176.72, -173956.05, -174796.64, -174492.78, -174890.17, 0.00, 0.00, 0.00
108, -187500.02, -187500.02, -187500.02, -187500.02, -187500.02, -187500.02, -187500.02, -187500.02, -177704.08, -176527.95, -177612.28, -174185.28, -173954.33, -174796.47, -174494.94, -174885.58, 0.00, 0.00, 0.00
109, -187500.02, -187500.02, -187500.02, -187500.02, -187500.02, -187500.02, -187500.02, -187500.02, -177704.08, -176527.95, -177612.28, -174185.28, -173954.33, -174796.47, -174494.94, -174885.58, 0.00, 0.00, 0.00
110, -187500.02, -187500.02, -187500.02, -187500.02, -187500.02, -187500.02, -187500.02, -187500.02, -177718.61, -176539.89, -177625.02, -174180.91, -173960.92, -174798.53, -174495.30, -174881.97, 0.00, -0.01, 0.97
111, -187500.02, -187500.02, -187500.02, -187500.02, -187500.02, -187500.02, -187500.02, -187500.02, -177718.61, -176539.89, -177625.02, -174180.91, -173960.92, -174798.53, -174495.30, -174881.97, 0.00, 0.00, 0.00
112, -187500.02, -187500.02, -187500.02, -187500.02, -187500.02, -187500.02, -187500.02, -187500.02, -177728.19, -176549.00, -177634.11, -174186.94, -173965.63, -174796.72, -174500.53, -174874.19, 0.00, 0.00, 0.00
113, -187500.02, -187500.02, -187500.02, -187500.02, -187500.02, -187500.02, -187500.02, -187500.02, -177728.19, -176549.00, -177634.11, -174186.94, -173965.63, -174796.72, -174500.53, -174874.19, 0.00, 0.00, 0.00
114, -187500.02, -187500.02, -187500.02, -187500.02, -187500.02, -187500.02, -187500.02, -187500.02, -177738.66, -176558.72, -177643.20, -174184.67, -173972.78, -174795.23, -174499.66, -174867.72, 0.00, 0.00, 0.00
115, -187500.02, -187500.02, -187500.02, -187500.02, -187500.02, -187500.02, -187500.02, -187500.02, -177738.66, -176558.72, -177643.20, -174184.67, -173972.78, -174795.23, -174499.66, -174867.72, 0.00, 0.00, 0.00
116, -187500.02, -187500.02, -187500.02, -187500.02, -187500.02, -187500.02, -187500.02, -187500.02, -177749.83, -176568.38, -177654.47, -174184.05, -173973.48, -174795.67, -174501.38, -174862.27, 0.00, 0.00, 0.00
117, -187500.02, -187500.02, -187500.02, -187500.02, -187500.02, -187500.02, -187500.02, -187500.02, -177749.83, -176568.38, -177654.47, -174184.05, -173973.48, -174795.67, -174501.38, -174862.27, 0.00, 0.00, 0.00
118, -187500.02, -187500.02, -187500.02, -187500.02, -187500.02, -187500.02, -187500.02, -187500.02, -177763.38, -176579.80, -177666.77, -174192.02, -173969.80, -174798.56, -174503.73, -174858.19, 0.00, 0.00, 0.00
119, -187500.02, -187500.02, -187500.02, -187500.02, -187500.02, -187500.02, -187500.02, -187500.02, -177763.38, -176579.80, -177666.77, -174192.02, -173969.80, -174798.56, -174503.73, -174858.19, 0.00, 0.00, 0.00
120, -187500.02, -187500.02, -187500.02, -187500.02, -187500.02, -187500.02, -187500.02, -187500.02, -177774.50, -176590.27, -177675.73, -174190.94, -173973.56, -174797.70, -174508.36, -174852.14, 0.00, -0.01, 0.97
121, -187500.02, -187500.02, -187500.02, -187500.02, -187500.02, -187500.02, -187500.02, -187500.02, -177774.50, -176590.27, -177675.73, -174190.94, -173973.56, -174797.70, -174508.36, -174852.14, 0.00, 0.00, 0.00
122, -187500.02, -187500.02, -187500.02, -187500.02, -187500.02, -187500.02, -187500.02, -187500.02, -177785.30, -176599.09, -177684.31, -174196.25, -173984.98, -174796.84, -174513.67, -174845.70, 0.00, 0.00, 0.00
123, -187500.02, -187500.02, -187500.02, -187500.02, -187500.02, -187500.02, -187500.02, -187500.02, -177785.30, -176599.09, -177684.31, -174196.25, -173984.98, -174796.84, -174513.67, -174845.70, 0.00, 0.00, 0.00
124, -187500.02, -187500.02, -187500.02, -187500.02, -187500.02, -187500.02, -187500.02, -187500.02, -177796.70, -176608.59, -177694.59, -174199.70, -173977.55, -174796.42, -174513.78, -174839.83, 0.00, 0.00, 0.00
125, -187500.02, -187500.02, -187500.02, -187500.02, -187500.02, -187500.02, -187500.02, -187500.02, -177796.70, -176608.59, -177694.59, -174199.70, -173977.55, -174796.42, -174513.78, -174839.83, 0.00, 0.00, 0.00
126, -187500.02, -187500.02, -187500.02, -187500.02, -187500.02, -187500.02, -187500.02, -187500.02, -177808.59, -176619.28, -177706.63, -174202.34, -173990.69, -174797.81, -174514.64, -174834.75, 0.00, 0.00, 0.00
127, -187500.02, -187500.02, -187500.02, -187500.02, -187500.02, -187500.02, -187500.02, -187500.02, -177808.59, -176619.28, -177706.63, -174202.34, -173990.69, -174797.81, -174514.64, -174834.75, 0.00, 0.00, 0.00
128, -187500.02, -187500.02, -187500.02, -187500.02, -187500.02, -187500.02, -187500.02, -187500.02, -177818.94, -176628.02, -177715.47, -174205.56, -173988.39, -174796.53, -174522.58, -174827.09, 0.00, 0.00, 0.00
129, -187500.02, -187500.02, -187500.02, -187500.02, -187500.02, -187500.02, -187500.02, -187500.02, -177818.94, -176628.02, -177715.47, -174205.56, -173988.39, -174796.53, -174522.58, -174827.09, 0.00, 0.00, 0.00
130, -187500.02, -187500.02, -187500.02, -187500.02, -187500.02, -187500.02, -187500.02, -187500.02, -177827.61, -176637.52, -177722.80, -174205.83, -173994.67, -174793.56, -174521.00, -174819.38, 0.00, -0.01, 0.98
131, -187500.02, -187500.02, -187500.02, -187500.02, -187500.02, -187500.02, -187500.02, -187500.02, -177827.61, -176637.52, -177722.80, -174205.83, -173994.67, -174793.56, -174521.00, -174819.38, 0.00, 0.00, 0.00
132, -187500.02, -187500.02, -187500.02, -187500.02, -187500.02, -187500.02, -187500.02, -187500.02, -177840.27, -176649.19, -177735.13, -174207.75, -173995.05, -174795.67, -174523.39, -174814.59, 0.00, 0.00, 0.00
133, -187500.02, -187500.02, -187500.02, -187500.02, -187500.02, -187500.02, -187500.02, -187500.02, -177840.27, -176649.19, -177735.13, -174207.75, -173995.05, -174795.67, -174523.39, -174814.59, 0.00, 0.00, 0.00
134, -187500.02, -187500.02, -187500.02, -187500.02, -187500.02, -187500.02, -187500.02, -187500.02, -177853.73, -176660.83, -177747.59, -174209.83, -173992.67, -174797.16, -174524.88, -174810.08, 0.00, 0.00, 0.00
135, -187500.02, -187500.02, -187500.02, -187500.02, -187500.02, -187500.02, -187500.02, -187500.02, -177853.73, -176660.83, -177747.59, -174209.83, -173992.67, -174797.16, -174524.88, -174810.08, 0.00, 0.00, 0.00
136, -187500.02, -187500.02, -187500.02, -187500.02, -187500.02, -187500.02, -187500.02, -187500.02, -177865.75, -176671.17, -177758.61, -174213.31, -173995.70, -174797.45, -174529.72, -174804.47, 0.00, 0.00, 0.00
137, -187500.02, -187500.02, -187500.02, -187500.02, -187500.02, -187500.02, -187500.02, -187500.02, -177865.75, -176671.17, -177758.61, -174213.31, -173995.70, -174797.45, -174529.72, -174804.47, 0.00, 0.00, 0.00
138, -187500.02, -187500.02, -187500.02, -187500.02, -187500.02, -187500.02, -187500.02, -187500.02, -177873.88, -176678.89, -177765.34, -174220.23, -174000.19, -174794.88, -174532.00, -174796.36, 0.00, 0.00, 0.00
139, -187500.02, -187500.02, -187500.02, -187500.02, -187500.02, -187500.02, -187500.02, -187500.02, -177873.88, -176678.89, -177765.34, -174220.23, -174000.19, -174794.88, -174532.00, -174796.36, 0.00, 0.00, 0.00
140, -187500.02, -187500.02, -187500.02, -187500.02, -187500.02, -187500.02, -187500.02, -187500.02, -177887.56, -176690.94, -177778.11, -174218.03, -174002.11, -174797.41, -174532.47, -174792.94, 0.00, -0.01, 0.97
141, -187500.02, -187500.02, -187500.02, -187500.02, -187500.02, -187500.02, -187500.02, -187500.02, -177887.56, -176690.94, -177778.11, -174218.03, -174002.11, -174797.41, -174532.47, -174792.94, 0.00, 0.00, 0.00
142, -187500.02, -187500.02, -187500.02, -187500.02, -187500.02, -187500.02, -187500.02, -187500.02, -177899.22, -176700.59, -177788.98, -174222.44, -174006.53, -174796.64, -174539.02, -174786.72, 0.00, 0.00, 0.00
143, -187500.02, -187500.02, -187500.02, -187500.02, -187500.02, -187500.02, -187500.02, -187500.02, -177899.22, -176700.59, -177788.98, -174222.44, -174006.53, -174796.64, -174539.02, -174786.72, 0.00, 0.00, 0.00
144, -187500.02, -187500.02, -187500.02, -187500.02, -187500.02, -187500.02, -187500.02, -187500.02, -177909.16, -176710.38, -177798.13, -174222.83, -174006.38, -174796.16, -174538.53, -174780.33, 0.00, 0.00, 0.00
145, -187500.02, -187500.02, -187500.02, -187500.02, -187500.02, -187500.02, -187500.02, -187500.02, -177909.16, -176710.38, -177798.13, -174222.83, -174006.38, -174796.16, -174538.53, -174780.33, 0.00, 0.00, 0.00
146, -187500.02, -187500.02, -187500.02, -187500.02, -187500.02, -187500.02, -187500.02, -187500.02, -177918.41, -176717.53, -177805.97, -174222.91, -174007.81, -174793.63, -174541.69, -174772.94, 0.00, 0.00, 0.00
147, -187500.02, -187500.02, -187500.02, -187500.02, -187500.02, -187500.02, -187500.02, -187500.02, -177918.41, -176717.53, -177805.97, -174222.91, -174007.81, -174793.63, -174541.69, -174772.94, 0.00, 0.00, 0.00
148, -187500.02, -187500.02, -187500.02, -187500.02, -187500.02, -187500.02, -187500.02, -187500.02, -177929.56, -176727.73, -177816.50, -174227.13, -174010.67, -174793.55, -174543.47, -174767.30, 0.00, 0.00, 0.00
149, -187500.02, -187500.02, -187500.02, -187500.02, -187500.02, -187500.02, -187500.02, -187500.02, -177929.56, -176727.73, -177816.50, -174227.13, -174010.67, -174793.55, -174543.47, -174767.30, 0.00, 0.00, 0.00
150, -187500.02, -187500.02, -187500.02, -187500.02, -187500.02, -187500.02, -187500.02, -187500.02, -177940.52, -176736.94, -177826.06, -174231.33, -174012.50, -174792.36, -174547.36, -174761.27, 0.00, -0.01, 0.97
151, -187500.02, -187500.02, -187500.02, -187500.02, -187500.02, -187500.02, -187500.02, -187500.02, -177940.52, -176736.94, -177826.06, -174231.33, -174012.50, -174792.36, -174547.36, -174761.27, 0.00, 0.00, 0.00
152, -187500.02, -187500.02, -187500.02, -187500.02, -187500.02, -187500.02, -187500.02, -187500.02, -177949.36, -176745.30, -177833.80, -174236.33, -174013.58, -174790.08, -174547.83, -174752.30, 0.00, 0.00, 0.00
153, -187500.02, -187500.02, -187500.02, -187500.02, -187500.02, -187500.02, -187500.02, -187500.02, -177949.36, -176745.30, -177833.80, -174236.33, -174013.58, -174790.08, -174547.83, -174752.30, 0.00, 0.00, 0.00
154, -187500.02, -187500.02, -187500.02, -187500.02, -187500.02, -187500.02, -187500.02, -187500.02, -177957.36, -176752.38, -177840.47, -174235.75, -174019.70, -174787.16, -174551.52, -174742.92, 0.00, 0.00, 0.00
155, -187500.02, -187500.02, -187500.02, -187500.02, -187500.02, -187500.02, -187500.02, -187500.02, -177957.36, -176752.38, -177840.47, -174235.75, -174019.70, -174787.16, -174551.52, -174742.92, 0.00, 0.00, 0.00
156, -187500.02, -187500.02, -187500.02, -187500.02, -187500.02, -187500.02, -187500.02, -187500.02, -177970.34, -176764.27, -177852.20, -174237.78, -174014.38, -174787.95, -174548.66, -174739.34, 0.00, 0.00, 0.00
157, -187500.02, -187500.02, -187500.02, -187500.02, -187500.02, -187500.02, -187500.02, -187500.02, -177970.34, -176764.27, -177852.20, -174237.78, -174014.38, -174787.95, -174548.66, -174739.34, 0.00, 0.00, 0.00
158, -187500.02, -187500.02, -187500.02, -187500.02, -187500.02, -187500.02, -187500.02, -187500.02, -177982.52, -176773.77, -177862.86, -174241.83, -174023.02, -174787.94, -174557.22, -174733.66, 0.00, 0.00, 0.00
159, -187500.02, -187500.02, -187500.02, -187500.02, -187500.02, -187500.02, -187500.02, -187500.02, -177982.52, -176773.77, -177862.86, -174241.83, -174023.02, -174787.94, -174557.22, -174733.66, 0.00, 0.00, 0.00
160, -187500.02, -187500.02, -187500.02, -187500.02, -187500.02, -187500.02, -187500.02, -187500.02, -177991.34, -176782.78, -177872.05, -174244.77, -174023.97, -174786.25, -174556.28, -174726.16, 0.00, -0.01, 0.97
161, -187500.02, -187500.02, -187500.02, -187500.02, -187500.02, -187500.02, -187500.02, -187500.02, -177991.34, -176782.78, -177872.05, -174244.77, -174023.97, -174786.25, -174556.28, -174726.16, 0.00, 0.00, 0.00
162, -187500.02, -187500.02, -187500.02, -187500.02, -187500.02, -187500.02, -187500.02, -187500.02, -178000.75, -176791.09, -177879.44, -174247.28, -174030.20, -174783.80, -174560.92, -174718.33, 0.00, 0.00, 0.00
163, -187500.02, -187500.02, -187500.02, -187500.02, -187500.02, -187500.02, -187500.02, -187500.02, -178000.75, -176791.09, -177879.44, -174247.28, -174030.20, -174783.80, -174560.92, -174718.33, 0.00, 0.00, 0.00
164, -187500.02, -187500.02, -187500.02, -187500.02, -187500.02, -187500.02, -187500.02, -187500.02, -178013.53, -176803.16, -177891.98, -174248.36, -174029.95, -174785.22, -174561.55, -174715.00, 0.00, 0.00, 0.00
165, -187500.02, -187500.02, -187500.02, -187500.02, -187500.02, -187500.02, -187500.02, -187500.02, -178013.53, -176803.16, -177891.98, -174248.36, -174029.95, -174785.22, -174561.55, -174715.00, 0.00, 0.00, 0.00
166, -187500.02, -187500.02, -187500.02, -187500.02, -187500.02, -187500.02, -187500.02, -187500.02, -178024.80, -176812.78, -177902.27, -174252.16, -174029.22, -174785.22, -174565.36, -174709.75, 0.00, 0.00, 0.00
167, -187500.02, -187500.02, -187500.02, -187500.02, -187500.02, -187500.02, -187500.02, -187500.02, -178024.80, -176812.78, -177902.27, -174252.16, -174029.22, -174785.22, -174565.36, -174709.75, 0.00, 0.00, 0.00
168, -187500.02, -187500.02, -187500.02, -187500.02, -187500.02, -187500.02, -187500.02, -187500.02, -178034.55, -176821.34, -177911.44, -174257.19, -174036.38, -174784.53, -174568.03, -174702.59, 0.00, 0.00, 0.00
169, -187500.02, -187500.02, -187500.02, -187500.02, -187500.02, -187500.02, -187500.02, -187500.02, -178034.55, -176821.34, -177911.44, -174257.19, -174036.38, -174784.53, -174568.03, -174702.59, 0.00, 0.00, 0.00
170, -187500.02, -187500.02, -187500.02, -187500.02, -187500.02, -187500.02, -187500.02, -187500.02, -178044.67, -176830.05, -177919.48, -174251.94, -174031.92, -174782.39, -174567.52, -174695.08, 0.00, -0.01, 0.97
171, -187500.02, -187500.02, -187500.02, -187500.02, -187500.02, -187500.02, -187500.02, -187500.02, -178044.67, -176830.05, -177919.48, -174251.94, -174031.92, -174782.39, -174567.52, -174695.08, 0.00, 0.00, 0.00
172, -187500.02, -187500.02, -187500.02, -187500.02, -187500.02, -187500.02, -187500.02, -187500.02, -178056.38, -176840.77, -177930.36, -174259.78, -174046.41, -174784.05, -174575.36, -174689.16, 0.00, 0.00, 0.00
173, -187500.02, -187500.02, -187500.02, -187500.02, -187500.02, -187500.02, -187500.02, -187500.02, -178056.38, -176840.77, -177930.36, -174259.78, -174046.41, -174784.05, -174575.36, -174689.16, 0.00, 0.00, 0.00
174, -187500.02, -187500.02, -187500.02, -187500.02, -187500.02, -187500.02, -187500.02, -187500.02, -178067.16, -176850.13, -177940.58, -174262.69, -174045.45, -174783.95, -174571.56, -174683.06, 0.00, 0.00, 0.00
175, -187500.02, -187500.02, -187500.02, -187500.02, -187500.02, -187500.02, -187500.02, -187500.02, -178067.16, -176850.13, -177940.58, -174262.69, -174045.45, -174783.95, -174571.56, -174683.06, 0.00, 0.00, 0.00
176, -187500.02, -187500.02, -187500.02, -187500.02, -187500.02, -187500.02, -187500.02, -187500.02, -178077.84, -176860.00, -177950.09, -174262.16, -174044.16, -174783.30, -174577.53, -174677.09, 0.00, 0.00, 0.00
177, -187500.02, -187500.02, -187500.02, -187500.02, -187500.02, -187500.02, -187500.02, -187500.02, -178077.84, -176860.00, -177950.09, -174262.16, -174044.16, -174783.30, -174577.53, -174677.09, 0.00, 0.00, 0.00
178, -187500.02, -187500.02, -187500.02, -187500.02, -187500.02, -187500.02, -187500.02, -187500.02, -178087.86, -176868.66, -177958.23, -174265.30, -174047.13, -174781.06, -174575.50, -174669.69, 0.00, 0.00, 0.00
179, -187500.02, -187500.02, -187500.02, -187500.02, -187500.02, -187500.02, -187500.02, -187500.02, -178087.86, -176868.66, -177958.23, -174265.30, -174047.13, -174781.06, -174575.50, -174669.69, 0.00, 0.00, 0.00
180, -187500.02, -187500.02, -187500.02, -187500.02, -187500.02, -187500.02, -187500.02, -187500.02, -178099.55, -176879.66, -177970.31, -174266.70, -174043.64, -174781.78, -174579.84, -174665.94, 0.00, -0.01, 0.96
181, -187500.02, -187500.02, -187500.02, -187500.02, -187500.02, -187500.02, -187500.02, -187500.02, -178099.55, -176879.66, -177970.31, -174266.70, -174043.64, -174781.78, -174579.84, -174665.94, 0.00, 0.00, 0.00
182, -187500.02, -187500.02, -187500.02, -187500.02, -187500.02, -187500.02, -187500.02, -187500.02, -178113.25, -176892.48, -177982.13, -174266.36, -174048.25, -174783.27, -174580.34, -174662.05, 0.00, 0.00, 0.00
183, -187500.02, -187500.02, -187500.02, -187500.02, -187500.02, -187500.02, -187500.02, -187500.02, -178113.25, -176892.48, -177982.13, -174266.36, -174048.25, -174783.27, -174580.34, -174662.05, 0.00, 0.00, 0.00
184, -187500.02, -187500.02, -187500.02, -187500.02, -187500.02, -187500.02, -187500.02, -187500.02, -178122.97, -176900.08, -177990.56, -174269.89, -174053.52, -174781.66, -174587.19, -174653.86, 0.00, 0.00, 0.00
185, -187500.02, -187500.02, -187500.02, -187500.02, -187500.02, -187500.02, -187500.02, -187500.02, -178122.97, -176900.08, -177990.56, -174269.89, -174053.52, -174781.66, -174587.19, -174653.86, 0.00, 0.00, 0.00
186, -187500.02, -187500.02, -187500.02, -187500.02, -187500.02, -187500.02, -187500.02, -187500.02, -178131.81, -176908.11, -177997.81, -174271.66, -174051.84, -174779.02, -174585.58, -174646.02, 0.00, 0.00, 0.00
187, -187500.02, -187500.02, -187500.02, -187500.02, -187500.02, -187500.02, -187500.02, -187500.02, -178131.81, -176908.11, -177997.81, -174271.66, -174051.84, -174779.02, -174585.58, -174646.02, 0.00, 0.00, 0.00
188, -187500.02, -187500.02, -187500.02, -187500.02, -187500.02, -187500.02, -187500.02, -187500.02, -178144.14, -176918.23, -178009.28, -174270.72, -174055.06, -174780.31, -174588.52, -174640.72, 0.00, 0.00, 0.00
189, -187500.02, -187500.02, -187500.02, -187500.02, -187500.02, -187500.02, -187500.02, -187500.02, -178144.14, -176918.23, -178009.28, -174270.72, -174055.06, -174780.31, -174588.52, -174640.72, 0.00, 0.00, 0.00
190, -187500.02, -187500.02, -187500.02, -187500.02, -187500.02, -187500.02, -187500.02, -187500.02, -178155.84, -176929.98, -178020.69, -174279.97, -174057.00, -174780.48, -174592.64, -174636.16, 0.01, -0.01, 0.97
191, -187500.02, -187500.02, -187500.02, -187500.02, -187500.02, -187500.02, -187500.02, -187500.02, -178155.84, -176929.98, -178020.69, -174279.97, -174057.00, -174780.48, -174592.64, -174636.16, 0.00, 0.00, 0.00
192, -187500.02, -187500.02, -187500.02, -187500.02, -187500.02, -187500.02, -187500.02, -187500.02, -178162.55, -176936.47, -178026.52, -174283.00, -174062.38, -174776.84, -174594.75, -174626.94, 0.00, 0.00, 0.00
193, -187500.02, -187500.02, -187500.02, -187500.02, -187500.02, -187500.02, -187500.02, -187500.02, -178162.55, -176936.47, -178026.52, -174283.00, -174062.38, -174776.84, -174594.75, -174626.94, 0.00, 0.00, 0.00
194, -187500.02, -187500.02, -187500.02, -187500.02, -187500.02, -187500.02, -187500.02, -187500.02, -178171.00, -176943.38, -178033.42, -174287.50, -174067.05, -174774.08, -174593.88, -174618.17, 0.00, 0.00, 0.00
195, -187500.02, -187500.02, -187500.02, -187500.02, -187500.02, -187500.02, -187500.02, -187500.02, -178171.00, -176943.38, -178033.42, -174287.50, -174067.05, -174774.08, -174593.88, -174618.17, 0.00, 0.00, 0.00
196, -187500.02, -187500.02, -187500.02, -187500.02, -187500.02, -187500.02, -187500.02, -187500.02, -178182.56, -176953.09, -178043.23, -174283.97, -174065.72, -174772.89, -174597.41, -174612.47, 0.00, 0.00, 0.00
197, -187500.02, -187500.02, -187500.02, -187500.02, -187500.02, -187500.02, -187500.02, -187500.02, -178182.56, -176953.09, -178043.23, -174283.97, -174065.72, -174772.89, -174597.41, -174612.47, 0.00, 0.00, 0.00
198, -187500.02, -187500.02, -187500.02, -187500.02, -187500.02, -187500.02, -187500.02, -187500.02, -178193.67, -176962.58, -178052.53, -174286.00, -174066.81, -174772.58, -174601.39, -174606.81, 0.00, 0.00, 0.00
199, -187500.02, -187500.02, -187500.02, -187500.02, -187500.02, -187500.02, -187500.02, -187500.02, -178193.67, -176962.58, -178052.53, -174286.00, -174066.81, -174772.58, -174601.39, -174606.81, 0.00, 0.00, 0.00
200, -187500.02, -187500.02, -187500.02, -187500.02, -187500.02, -187500.02, -187500.02, -187500.02, -178201.48, -176968.92, -178060.03, -174287.08, -174070.80, -174769.27, -174603.91, -174597.50, 0.01, -0.01, 0.96
201, -187500.02, -187500.02, -187500.02, -187500.02, -187500.02, -187500.02, -187500.02, -187500.02, -178201.48, -176968.92, -178060.03, -174287.08, -174070.80, -174769.27, -174603.91, -174597.50, 0.00, 0.00, 0.00
202, -187500.02, -187500.02, -187500.02, -187500.02, -187500.02, -187500.02, -187500.02, -187500.02, -178208.95, -176976.55, -178067.52, -174291.81, -174072.39, -174766.56, -174604.13, -174588.48, 0.00, 0.00, 0.00
203, -187500.02, -187500.02, -187500.02, -187500.02, -187500.02, -187500.02, -187500.02, -187500.02, -178208.95, -176976.55, -178067.52, -174291.81, -174072.39, -174766.56, -174604.13, -174588.48, 0.00, 0.00, 0.00
204, -187500.02, -187500.02, -187500.02, -187500.02, -187500.02, -187500.02, -187500.02, -187500.02, -178218.31, -176984.58, -178075.88, -174293.27, -174077.89, -174765.13, -174610.91, -174580.47, 0.00, 0.00, 0.00
205, -187500.02, -187500.02, -187500.02, -187500.02, -187500.02, -187500.02, -187500.02, -187500.02, -178218.31, -176984.58, -178075.88, -174293.27, -174077.89, -174765.13, -174610.91, -174580.47, 0.00, 0.00, 0.00
206, -187500.02, -187500.02, -187500.02, -187500.02, -187500.02, -187500.02, -187500.02, -187500.02, -178228.13, -176992.63, -178084.64, -174297.56, -174080.31, -174763.03, -174610.97, -174573.84, 0.00, 0.00, 0.00
207, -187500.02, -187500.02, -187500.02, -187500.02, -187500.02, -187500.02, -187500.02, -187500.02, -178228.13, -176992.63, -178084.64, -174297.56, -174080.31, -174763.03, -174610.97, -174573.84, 0.00, 0.00, 0.00
208, -187500.02, -187500.02, -187500.02, -187500.02, -187500.02, -187500.02, -187500.02, -187500.02, -178234.92, -176998.72, -178090.48, -174303.45, -174084.16, -174758.47, -174616.00, -174564.75, 0.00, 0.00, 0.00
209, -187500.02, -187500.02, -187500.02, -187500.02, -187500.02, -187500.02, -187500.02, -187500.02, -178234.92, -176998.72, -178090.48, -174303.45, -174084.16, -174758.47, -174616.00, -174564.75, 0.00, 0.00, 0.00
210, -187500.02, -187500.02, -187500.02, -187500.02, -187500.02, -187500.02, -187500.02, -187500.02, -178243.52, -177005.09, -178097.20, -174296.48, -174085.50, -174754.66, -174613.23, -174555.05, 0.00, -0.01, 0.97
211, -187500.02, -187500.02, -187500.02, -187500.02, -187500.02, -187500.02, -187500.02, -187500.02, -178243.52, -177005.09, -178097.20, -174296.48, -174085.50, -174754.66, -174613.23, -174555.05, 0.00, 0.00, 0.00
212, -187500.02, -187500.02, -187500.02, -187500.02, -187500.02, -187500.02, -187500.02, -187500.02, -178254.22, -177014.75, -178108.13, -174297.98, -174082.48, -174754.50, -174613.50, -174549.38, 0.00, 0.00, 0.00
213, -187500.02, -187500.02, -187500.02, -187500.02, -187500.02, -187500.02, -187500.02, -187500.02, -178254.22, -177014.75, -178108.13, -174297.98, -174082.48, -174754.50, -174613.50, -174549.38, 0.00, 0.00, 0.00
214, -187500.02, -187500.02, -187500.02, -187500.02, -187500.02, -187500.02, -187500.02, -187500.02, -178266.00, -177024.09, -178118.63, -174299.36, -174079.98, -174754.20, -174614.03, -174544.20, 0.00, 0.00, 0.00
215, -187500.02, -187500.02, -187500.02, -187500.02, -187500.02, -187500.02, -187500.02, -187500.02, -178266.00, -177024.09, -178118.63, -174299.36, -174079.98, -174754.20, -174614.03, -174544.20, 0.00, 0.00, 0.00
216, -187500.02, -187500.02, -187500.02, -187500.02, -187500.02, -187500.02, -187500.02, -187500.02, -178272.09, -177029.97, -178123.86, -174308.23, -174089.03, -174750.36, -174620.56, -174534.66, 0.00, 0.00, 0.00
217, -187500.02, -187500.02, -187500.02, -187500.02, -187500.02, -187500.02, -187500.02, -187500.02, -178272.09, -177029.97, -178123.86, -174308.23, -174089.03, -174750.36, -174620.56, -174534.66, 0.00, 0.00, 0.00
218, -187500.02, -187500.02, -187500.02, -187500.02, -187500.02, -187500.02, -187500.02, -187500.02, -178280.38, -177036.50, -178130.66, -174303.39, -174085.55, -174747.67, -174618.73, -174526.50, 0.00, 0.00, 0.00
219, -187500.02, -187500.02, -187500.02, -187500.02, -187500.02, -187500.02, -187500.02, -187500.02, -178280.38, -177036.50, -178130.66, -174303.39, -174085.55, -174747.67, -174618.73, -174526.50, 0.00, 0.00, 0.00
220, -187500.02, -187500.02, -187500.02, -187500.02, -187500.02, -187500.02, -187500.02, -187500.02, -178289.94, -177044.42, -178139.00, -174313.97, -174095.41, -174745.75, -174626.44, -174518.80, 0.00, -0.01, 0.97
221, -187500.02, -187500.02, -187500.02, -187500.02, -187500.02, -187500.02, -187500.02, -187500.02, -178289.94, -177044.42, -178139.00, -174313.97, -174095.41, -174745.75, -174626.44, -174518.80, 0.00, 0.00, 0.00
222, -187500.02, -187500.02, -187500.02, -187500.02, -187500.02, -187500.02, -187500.02, -187500.02, -178300.33, -177053.02, -178148.45, -174312.95, -174097.34, -174744.17, -174627.47, -174512.06, 0.00, 0.00, 0.00
223, -187500.02, -187500.02, -187500.02, -187500.02, -187500.02, -187500.02, -187500.02, -187500.02, -178300.33, -177053.02, -178148.45, -174312.95, -174097.34, -174744.17, -174627.47, -174512.06, 0.00, 0.00, 0.00
224, -187500.02, -187500.02, -187500.02, -187500.02, -187500.02, -187500.02, -187500.02, -187500.02, -178309.22, -177061.23, -178155.98, -174314.23, -174090.91, -174741.27, -174626.59, -174504.25, 0.00, 0.00, 0.00
225, -187500.02, -187500.02, -187500.02, -187500.02, -187500.02, -187500.02, -187500.02, -187500.02, -178309.22, -177061.23, -178155.98, -174314.23, -174090.91, -174741.27, -174626.59, -174504.25, 0.00, 0.00, 0.00
226, -187500.02, -187500.02, -187500.02, -187500.02, -187500.02, -187500.02, -187500.02, -187500.02, -178316.83, -177067.86, -178161.92, -174319.02, -174097.75, -174737.42, -174631.73, -174494.41, 0.00, 0.00, 0.00
227, -187500.02, -187500.02, -187500.02, -187500.02, -187500.02, -187500.02, -187500.02, -187500.02, -178316.83, -177067.86, -178161.92, -174319.02, -174097.75, -174737.42, -174631.73, -174494.41, 0.00, 0.00, 0.00
228, -187500.02, -187500.02, -187500.02, -187500.02, -187500.02, -187500.02, -187500.02, -187500.02, -178326.75, -177077.20, -178170.70, -174320.64, -174097.42, -174737.44, -174629.91, -174488.70, 0.00, 0.00, 0.00
229, -187500.02, -187500.02, -187500.02, -187500.02, -187500.02, -187500.02, -187500.02, -187500.02, -178326.75, -177077.20, -178170.70, -174320.64, -174097.42, -174737.44, -174629.91, -174488.70, 0.00, 0.00, 0.00
230, -187500.02, -187500.02, -187500.02, -187500.02, -187500.02, -187500.02, -187500.02, -187500.02, -178337.97, -177085.91, -178179.78, -174318.48, -174106.30, -174737.45, -174630.44, -174481.98, 0.00, -0.01, 0.97
231, -187500.02, -187500.02, -187500.02, -187500.02, -187500.02, -187500.02, -187500.02, -187500.02, -178337.97, -177085.91, -178179.78, -174318.48, -174106.30, -174737.45, -174630.44, -174481.98, 0.00, 0.00, 0.00
232, -187500.02, -187500.02, -187500.02, -187500.02, -187500.02, -187500.02, -187500.02, -187500.02, -178345.88, -177093.11, -178188.06, -174322.97, -174102.36, -174734.13, -174632.34, -174473.95, 0.00, 0.00, 0.00
233, -187500.02, -187500.02, -187500.02, -187500.02, -187500.02, -187500.02, -187500.02, -187500.02, -178345.88, -177093.11, -178188.06, -174322.97, -174102.36, -174734.13, -174632.34, -174473.95, 0.00, 0.00, 0.00
234, -187500.02, -187500.02, -187500.02, -187500.02, -187500.02, -187500.02, -187500.02, -187500.02, -178353.44, -177099.14, -178193.75, -174325.83, -174114.03, -174730.11, -174638.02, -174465.16, 0.00, 0.00, 0.00
235, -187500.02, -187500.02, -187500.02, -187500.02, -187500.02, -187500.02, -187500.02, -187500.02, -178353.44, -177099.14, -178193.75, -174325.83, -174114.03, -174730.11, -174638.02, -174465.16, 0.00, 0.00, 0.00
236, -187500.02, -187500.02, -187500.02, -187500.02, -187500.02, -187500.02, -187500.02, -187500.02, -178365.19, -177108.67, -178204.34, -174324.88, -174106.72, -174730.38, -174633.92, -174459.52, 0.00, 0.00, 0.00
237, -187500.02, -187500.02, -187500.02, -187500.02, -187500.02, -187500.02, -187500.02, -187500.02, -178365.19, -177108.67, -178204.34, -174324.88, -174106.72, -174730.38, -174633.92, -174459.52, 0.00, 0.00, 0.00
238, -187500.02, -187500.02, -187500.02, -187500.02, -187500.02, -187500.02, -187500.02, -187500.02, -178376.13, -177118.59, -178214.09, -174328.42, -174109.95, -174730.28, -174638.44, -174453.33, 0.00, 0.00, 0.00
239, -187500.02, -187500.02, -187500.02, -187500.02, -187500.02, -187500.02, -187500.02, -187500.02, -178376.13, -177118.59, -178214.09, -174328.42, -174109.95, -174730.28, -174638.44, -174453.33, 0.00, 0.00, 0.00
240, -187500.02, -187500.02, -187500.02, -187500.02, -187500.02, -187500.02, -187500.02, -187500.02, -178385.11, -177126.02, -178221.36, -174329.42, -174110.73, -174728.05, -174638.42, -174445.45, 0.00, -0.01, 0.97
241, -187500.02, -187500.02, -187500.02, -187500.02, -187500.02, -187500.02, -187500.02, -187500.02, -178385.11, -177126.02, -178221.36, -174329.42, -174110.73, -174728.05, -174638.42, -174445.45, 0.00, 0.00, 0.00
242, -187500.02, -187500.02, -187500.02, -187500.02, -187500.02, -187500.02, -187500.02, -187500.02, -178393.11, -177133.64, -178228.41, -174334.41, -174111.45, -174725.08, -174638.22, -174436.98, 0.00, 0.00, 0.00
243, -187500.02, -187500.02, -187500.02, -187500.02, -187500.02, -187500.02, -187500.02, -187500.02, -178393.11, -177133.64, -178228.41, -174334.41, -174111.45, -174725.08, -174638.22, -174436.98, 0.00, 0.00, 0.00
244, -187500.02, -187500.02, -187500.02, -187500.02, -187500.02, -187500.02, -187500.02, -187500.02, -178399.75, -177139.22, -178233.97, -174342.45, -174124.11, -174720.86, -174648.66, -174314.91, 0.00, 0.00, 0.00
245, -187500.02, -187500.02, -187500.02, -187500.02, -187500.02, -187500.02, -187500.02, -187500.02, -178399.75, -177139.22, -178233.97, -174342.45, -174124.11, -174720.86, -174648.66, -174314.91, 0.00, 0.00, 0.00
246, -187500.02, -187500.02, -187500.02, -187500.02, -187500.02, -187500.02, -187500.02, -187500.02, -178366.11, -177104.56, -178198.58, -174355.97, -174156.73, -174676.98, -174673.27, -174203.09, 0.00, 0.00, 0.00
247, -187500.02, -187500.02, -187500.02, -187500.02, -187500.02, -187500.02, -187500.02, -187500.02, -178366.11, -177104.56, -178198.58, -174355.97, -174156.73, -174676.98, -174673.27, -174203.09, 0.00, 0.00, 0.00
248, -187500.02, -187500.02, -187500.02, -187500.02, -187500.02, -187500.02, -187500.02, -187500.02, -178310.59, -177050.06, -178142.72, -174354.22, -174159.17, -174611.91, -174671.80, -174595.91, 0.00, 0.00, 0.00
249, -187500.02, -187500.02, -187500.02, -187500.02, -187500.02, -187500.02, -187500.02, -187500.02, -178310.59, -177050.06, -178142.72, -174354.22, -174159.17, -174611.91, -174671.80, -174595.91, 0.00, -0.02, 0.97
250, -187500.02, -187500.02, -187500.02, -187500.02, -187500.02, -187500.02, -187500.02, -187500.02, -178267.34, -177008.39, -178099.08, -174342.78, -174128.59, -174559.25, -174656.59, -175236.22, 0.00, 0.00, 0.00
251, -187500.02, -187500.02, -187500.02, -187500.02, -187500.02, -187500.02, -187500.02, -187500.02, -178267.34, -177008.39, -178099.08, -174342.78, -174128.59, -174559.25, -174656.59, -175236.22, 0.00, 0.00, 0.00
252, -187500.02, -187500.02, -187500.02, -187500.02, -187500.02, -187500.02, -187500.02, -187500.02, -178274.25, -177013.42, -178105.53, -174327.33, -174112.33, -174555.66, -174645.08, -175446.91, 0.00, 0.00, 0.00
253, -187500.02, -187500.02, -187500.02, -187500.02, -187500.02, -187500.02, -187500.02, -187500.02, -178274.25, -177013.42, -178105.53, -174327.33, -174112.33, -174555.66, -174645.08, -175446.91, 0.00, 0.00, 0.00
254, -187500.02, -187500.02, -187500.02, -187500.02, -187500.02, -187500.02, -187500.02, -187500.02, -178284.44, -177021.86, -178115.38, -174336.19, -174113.36, -174554.95, -174648.05, -175438.28, 0.00, 0.00, 0.00
255, -187500.02, -187500.02, -187500.02, -187500.02, -187500.02, -187500.02, -187500.02, -187500.02, -178284.44, -177021.86, -178115.38, -174336.19, -174113.36, -174554.95, -174648.05, -175438.28, 0.00, 0.00, 0.00
0, -187500.02, -187500.02, -187500.02, -187500.02, -187500.02, -187500.02, -187500.02, -187500.02, -178294.05, -177031.02, -178123.08, -174336.61, -174115.34, -174552.36, -174653.70, -175428.48, 0.00, 0.00, 0.00
1, -187500.02, -187500.02, -187500.02, -187500.02, -187500.02, -187500.02, -187500.02, -187500.02, -178294.05, -177031.02, -178123.08, -174336.61, -174115.34, -174552.36, -174653.70, -175428.48, 0.00, 0.00, 0.00
2, -187500.02, -187500.02, -187500.02, -187500.02, -187500.02, -187500.02, -187500.02, -187500.02, -178301.27, -177037.05, -178128.16, -174341.00, -174122.66, -174548.34, -174653.13, -175417.80, 0.00, 0.00, 0.00
3, -187500.02, -187500.02, -187500.02, -187500.02, -187500.02, -187500.02, -187500.02, -187500.02, -178301.27, -177037.05, -178128.16, -174341.00, -174122.66, -174548.34, -174653.13, -175417.80, 0.00, -0.02, 0.97
4, -187500.02, -187500.02, -187500.02, -187500.02, -187500.02, -187500.02, -187500.02, -187500.02, -178313.16, -177047.17, -178139.73, -174339.00, -174113.31, -174550.56, -174652.69, -175411.67, 0.00, 0.00, 0.00
5, -187500.02, -187500.02, -187500.02, -187500.02, -187500.02, -187500.02, -187500.02, -187500.02, -178313.16, -177047.17, -178139.73, -174339.00, -174113.31, -174550.56, -174652.69, -175411.67, 0.00, 0.00, 0.00
6, -187500.02, -187500.02, -187500.02, -187500.02, -187500.02, -187500.02, -187500.02, -187500.02, -178324.05, -177056.45, -178150.06, -174339.23, -174126.20, -174550.27, -174658.31, -175404.58, 0.00, 0.00, 0.00
7, -187500.02, -187500.02, -187500.02, -187500.02, -187500.02, -187500.02, -187500.02, -187500.02, -178324.05, -177056.45, -178150.06, -174339.23, -174126.20, -174550.27, -174658.31, -175404.58, 0.00, 0.00, 0.00
8, -187500.02, -187500.02, -187500.02, -187500.02, -187500.02, -187500.02, -187500.02, -187500.02, -178332.22, -177063.47, -178157.30, -174347.89, -174126.36, -174546.47, -174660.50, -175395.09, 0.00, 0.00, 0.00
9, -187500.02, -187500.02, -187500.02, -187500.02, -187500.02, -187500.02, -187500.02, -187500.02, -178332.22, -177063.47, -178157.30, -174347.89, -174126.36, -174546.47, -174660.50, -175395.09, 0.00, 0.00, 0.00
10, -187500.02, -187500.02, -187500.02, -187500.02, -187500.02, -187500.02, -187500.02, -187500.02, -178340.27, -177070.56, -178163.53, -174348.25, -174128.73, -174543.16, -174659.23, -175385.34, 0.00, 0.00, 0.00
11, -187500.02, -187500.02, -187500.02, -187500.02, -187500.02, -187500.02, -187500.02, -187500.02, -178340.27, -177070.56, -178163.53, -174348.25, -174128.73, -174543.16, -174659.23, -175385.34, 0.00, 0.00, 0.00
12, -187500.02, -187500.02, -187500.02, -187500.02, -187500.02, -187500.02, -187500.02, -187500.02, -178352.61, -177081.11, -178174.94, -174341.70, -174127.80, -174544.16, -174658.64, -175380.63, 0.00, 0.00, 0.00
13, -187500.02, -187500.02, -187500.02, -187500.02, -187500.02, -187500.02, -187500.02, -187500.02, -178352.61, -177081.11, -178174.94, -174341.70, -174127.80, -174544.16, -174658.64, -175380.63, 0.00, -0.01, 0.97
14, -187500.02, -187500.02, -187500.02, -187500.02, -187500.02, -187500.02, -187500.02, -187500.02, -178363.27, -177090.27, -178184.53, -174352.09, -174124.36, -174543.52, -174664.91, -175374.48, 0.00, 0.00, 0.00
15, -187500.02, -187500.02, -187500.02, -187500.02, -187500.02, -187500.02, -187500.02, -187500.02, -178363.27, -177090.27, -178184.53, -174352.09, -174124.36, -174543.52, -174664.91, -175374.48, 0.00, 0.00, 0.00
16, -187500.02, -187500.02, -187500.02, -187500.02, -187500.02, -187500.02, -187500.02, -187500.02, -178371.31, -177095.97, -178191.25, -174356.92, -174133.73, -174540.08, -174667.44, -175364.88, 0.00, 0.00, 0.00
17, -187500.02, -187500.02, -187500.02, -187500.02, -187500.02, -187500.02, -187500.02, -187500.02, -178371.31, -177095.97, -178191.25, -174356.92, -174133.73, -174540.08, -174667.44, -175364.88, 0.00, 0.00, 0.00
18, -187500.02, -187500.02, -187500.02, -187500.02, -187500.02, -187500.02, -187500.02, -187500.02, -178377.80, -177103.02, -178197.98, -174353.95, -174138.25, -174537.41, -174674.20, -175354.53, 0.00, 0.00, 0.00
19, -187500.02, -187500.02, -187500.02, -187500.02, -187500.02, -187500.02, -187500.02, -187500.02, -178377.80, -177103.02, -178197.98, -174353.95, -174138.25, -174537.41, -174674.20, -175354.53, 0.00, 0.00, 0.00
20, -187500.02, -187500.02, -187500.02, -187500.02, -187500.02, -187500.02, -187500.02, -187500.02, -178389.13, -177112.59, -178207.80, -174356.31, -174131.80, -174536.42, -174671.70, -175348.88, 0.00, 0.00, 0.00
21, -187500.02, -187500.02, -187500.02, -187500.02, -187500.02, -187500.02, -187500.02, -187500.02, -178389.13, -177112.59, -178207.80, -174356.31, -174131.80, -174536.42, -174671.70, -175348.88, 0.00, 0.00, 0.00
22, -187500.02, -187500.02, -187500.02, -187500.02, -187500.02, -187500.02, -187500.02, -187500.02, -178400.47, -177121.52, -178218.09, -174362.23, -174142.75, -174536.14, -174674.47, -175343.02, 0.00, 0.00, 0.00
23, -187500.02, -187500.02, -187500.02, -187500.02, -187500.02, -187500.02, -187500.02, -187500.02, -178400.47, -177121.52, -178218.09, -174362.23, -174142.75, -174536.14, -174674.47, -175343.02, 0.00, -0.01, 0.97
24, -187500.02, -187500.02, -187500.02, -187500.02, -187500.02, -187500.02, -187500.02, -187500.02, -178407.95, -177128.56, -178224.72, -174361.69, -174140.72, -174533.39, -174677.94, -175333.77, 0.00, 0.00, 0.00
25, -187500.02, -187500.02, -187500.02, -187500.02, -187500.02, -187500.02, -187500.02, -187500.02, -178407.95, -177128.56, -178224.72, -174361.69, -174140.72, -174533.39, -174677.94, -175333.77, 0.00, 0.00, 0.00
26, -187500.02, -187500.02, -187500.02, -187500.02, -187500.02, -187500.02, -187500.02, -187500.02, -178416.67, -177136.36, -178232.27, -174362.94, -174143.33, -174530.30, -174679.17, -175324.69, 0.00, 0.00, 0.00
27, -187500.02, -187500.02, -187500.02, -187500.02, -187500.02, -187500.02, -187500.02, -187500.02, -178416.67, -177136.36, -178232.27, -174362.94, -174143.33, -174530.30, -174679.17, -175324.69, 0.00, 0.00, 0.00
28, -187500.02, -187500.02, -187500.02, -187500.02, -187500.02, -187500.02, -187500.02, -187500.02, -178426.14, -177143.48, -178239.94, -174369.34, -174150.44, -174527.48, -174680.22, -175316.06, 0.00, 0.00, 0.00
29, -187500.02, -187500.02, -187500.02, -187500.02, -187500.02, -187500.02, -187500.02, -187500.02, -178426.14, -177143.48, -178239.94, -174369.34, -174150.44, -174527.48, -174680.22, -175316.06, 0.00, 0.00, 0.00
30, -187500.02, -187500.02, -187500.02, -187500.02, -187500.02, -187500.02, -187500.02, -187500.02, -178439.11, -177154.75, -178250.08, -174366.89, -174141.39, -174529.92, -174679.53, -175309.98, 0.00, 0.00, 0.00
31, -187500.02, -187500.02, -187500.02, -187500.02, -187500.02, -187500.02, -187500.02, -187500.02, -178439.11, -177154.75, -178250.08, -174366.89, -174141.39, -174529.92, -174679.53, -175309.98, 0.00, 0.00, 0.00
32, -187500.02, -187500.02, -187500.02, -187500.02, -187500.02, -187500.02, -187500.02, -187500.02, -178446.58, -177161.23, -178257.17, -174369.11, -174149.63, -174527.33, -174685.22, -175300.81, 0.00, 0.00, 0.00
33, -187500.02, -187500.02, -187500.02, -187500.02, -187500.02, -187500.02, -187500.02, -187500.02, -178446.58, -177161.23, -178257.17, -174369.11, -174149.63, -174527.33, -174685.22, -175300.81, 0.00, -0.02, 0.97
34, -187500.02, -187500.02, -187500.02, -187500.02, -187500.02, -187500.02, -187500.02, -187500.02, -178453.89, -177168.22, -178264.34, -174374.06, -174150.08, -174523.53, -174686.67, -175291.89, 0.00, 0.00, 0.00
35, -187500.02, -187500.02, -187500.02, -187500.02, -187500.02, -187500.02, -187500.02, -187500.02, -178453.89, -177168.22, -178264.34, -174374.06, -174150.08, -174523.53, -174686.67, -175291.89, 0.00, 0.00, 0.00
36, -187500.02, -187500.02, -187500.02, -187500.02, -187500.02, -187500.02, -187500.02, -187500.02, -178463.34, -177176.27, -178273.19, -174371.39, -174153.14, -174522.33, -174686.92, -175285.33, 0.00, 0.00, 0.00
37, -187500.02, -187500.02, -187500.02, -187500.02, -187500.02, -187500.02, -187500.02, -187500.02, -178463.34, -177176.27, -178273.19, -174371.39, -174153.14, -174522.33, -174686.92, -175285.33, 0.00, 0.00, 0.00
38, -187500.02, -187500.02, -187500.02, -187500.02, -187500.02, -187500.02, -187500.02, -187500.02, -178474.11, -177185.64, -178282.00, -174378.97, -174154.44, -174519.73, -174690.91, -175277.77, 0.00, 0.00, 0.00
39, -187500.02, -187500.02, -187500.02, -187500.02, -187500.02, -187500.02, -187500.02, -187500.02, -178474.11, -177185.64, -178282.00, -174378.97, -174154.44, -174519.73, -174690.91, -175277.77, 0.00, 0.00, 0.00
40, -187500.02, -187500.02, -187500.02, -187500.02, -187500.02, -187500.02, -187500.02, -187500.02, -178482.30, -177192.91, -178288.45, -174378.06, -174159.13, -174516.38, -174693.55, -175269.00, 0.00, 0.00, 0.00
41, -187500.02, -187500.02, -187500.02, -187500.02, -187500.02, -187500.02, -187500.02, -187500.02, -178482.30, -177192.91, -178288.45, -174378.06, -174159.13, -174516.38, -174693.55, -175269.00, 0.00, 0.00, 0.00
42, -187500.02, -187500.02, -187500.02, -187500.02, -187500.02, -187500.02, -187500.02, -187500.02, -178490.91, -177199.28, -178295.83, -174381.38, -174156.20, -174513.47, -174694.86, -175260.05, 0.00, 0.00, 0.00
43, -187500.02, -187500.02, -187500.02, -187500.02, -187500.02, -187500.02, -187500.02, -187500.02, -178490.91, -177199.28, -178295.83, -174381.38, -174156.20, -174513.47, -174694.86, -175260.05, 0.01, -0.01, 0.97
44, -187500.02, -187500.02, -187500.02, -187500.02, -187500.02, -187500.02, -187500.02, -187500.02, -178499.97, -177206.84, -178303.84, -174389.94, -174162.22, -174510.61, -174699.42, -175252.22, 0.00, 0.00, 0.00
45, -187500.02, -187500.02, -187500.02, -187500.02, -187500.02, -187500.02, -187500.02, -187500.02, -178499.97, -177206.84, -178303.84, -174389.94, -174162.22, -174510.61, -174699.42, -175252.22, 0.00, 0.00, 0.00
