%OpenBCI Raw EEG Data
%Sample Rate = 250.0 Hz
%First Column = SampleIndex
%Other Columns = EEG data in microvolts followed by Accel Data (in G) interleaved with Aux Data
0, 11865.33, 51242.02, 48995.43, 41749.91, 12584.23, 30710.67, 73883.73, 48356.39, 18894.09, 15628.99, 28297.96, 44468.05, 9249.87, 4674.51, 37909.72, 15248.65, 0.00, 0.00, 0.00
1, 11866.67, 51248.26, 48999.49, 41756.75, 12587.61, 30710.60, 73879.15, 48358.76, 18894.09, 15628.99, 28297.96, 44468.05, 9249.87, 4674.51, 37909.72, 15248.65, 0.00, 0.00, 0.00
2, 11866.67, 51248.26, 48999.49, 41756.75, 12587.61, 30710.60, 73879.15, 48358.76, 18898.06, 15640.41, 28321.92, 44563.48, 9273.34, 4698.05, 37962.56, 15291.68, 0.00, 0.00, 0.00
3, 11879.10, 51257.64, 48996.59, 41754.93, 12581.60, 30707.43, 73892.34, 48358.89, 18898.06, 15640.41, 28321.92, 44563.48, 9273.34, 4698.05, 37962.56, 15291.68, 0.00, 0.00, 0.00
4, 11879.10, 51257.64, 48996.59, 41754.93, 12581.60, 30707.43, 73892.34, 48358.89, 18912.55, 15630.64, 28292.79, 44456.50, 9257.33, 4675.92, 37899.32, 15236.00, 0.00, 0.00, 0.00
5, 11887.31, 51263.28, 49006.80, 41769.42, 12595.03, 30698.91, 73849.29, 48333.48, 18912.55, 15630.64, 28292.79, 44456.50, 9257.33, 4675.92, 37899.32, 15236.00, 0.00, 0.00, 0.00
6, 11887.31, 51263.28, 49006.80, 41769.42, 12595.03, 30698.91, 73849.29, 48333.48, 18902.74, 15653.62, 28328.98, 44556.10, 9294.37, 4714.14, 37965.38, 15292.39, 0.00, 0.00, 0.00
7, 11876.44, 51255.36, 49003.94, 41758.64, 12594.83, 30725.85, 73917.02, 48372.19, 18902.74, 15653.62, 28328.98, 44556.10, 9294.37, 4714.14, 37965.38, 15292.39, 0.00, 0.00, 0.00
8, 11876.44, 51255.36, 49003.94, 41758.64, 12594.83, 30725.85, 73917.02, 48372.19, 18904.46, 15635.33, 28302.65, 44481.73, 9265.38, 4682.11, 37914.01, 15255.24, 0.00, 0.00, 0.00
9, 11884.47, 51258.49, 49000.57, 41757.57, 12584.28, 30707.74, 73861.27, 48345.82, 18904.46, 15635.33, 28302.65, 44481.73, 9265.38, 4682.11, 37914.01, 15255.24, 0.92, 0.26, -0.20
10, 11884.47, 51258.49, 49000.57, 41757.57, 12584.28, 30707.74, 73861.27, 48345.82, 18915.88, 15647.20, 28320.02, 44536.34, 9300.11, 4707.30, 37953.95, 15280.77, 0.00, 0.00, 0.00
11, 11891.06, 51262.99, 49010.40, 41769.13, 12597.13, 30714.58, 73896.95, 48356.81, 18915.88, 15647.20, 28320.02, 44536.34, 9300.11, 4707.30, 37953.95, 15280.77, 0.00, 0.00, 0.00
12, 11891.06, 51262.99, 49010.40, 41769.13, 12597.13, 30714.58, 73896.95, 48356.81, 18914.18, 15639.20, 28305.64, 44479.16, 9280.87, 4688.32, 37914.59, 15247.40, 0.00, 0.00, 0.00
13, 11896.56, 51268.17, 49002.80, 41773.26, 12582.56, 30700.41, 73841.04, 48330.88, 18914.18, 15639.20, 28305.64, 44479.16, 9280.87, 4688.32, 37914.59, 15247.40, 0.00, 0.00, 0.00
14, 11896.56, 51268.17, 49002.80, 41773.26, 12582.56, 30700.41, 73841.04, 48330.88, 18912.93, 15653.33, 28322.36, 44524.47, 9307.80, 4708.48, 37946.31, 15272.14, 0.00, 0.00, 0.00
15, 11896.04, 51270.86, 49008.12, 41778.07, 12595.70, 30716.73, 73894.82, 48356.70, 18912.93, 15653.33, 28322.36, 44524.47, 9307.80, 4708.48, 37946.31, 15272.14, 0.00, 0.00, 0.00
16, 11896.04, 51270.86, 49008.12, 41778.07, 12595.70, 30716.73, 73894.82, 48356.70, 18923.23, 15648.52, 28306.05, 44483.79, 9298.39, 4694.65, 37913.41, 15250.01, 0.00, 0.00, 0.00
17, 11898.91, 51275.73, 49008.43, 41778.54, 12584.48, 30701.91, 73829.62, 48325.30, 18923.23, 15648.52, 28306.05, 44483.79, 9298.39, 4694.65, 37913.41, 15250.01, 0.00, 0.00, 0.00
18, 11898.91, 51275.73, 49008.43, 41778.54, 12584.48, 30701.91, 73829.62, 48325.30, 18917.26, 15661.49, 28322.39, 44517.86, 9324.03, 4718.36, 37938.87, 15272.37, 0.00, 0.00, 0.00
19, 11891.11, 51274.48, 49013.21, 41774.40, 12603.81, 30723.41, 73897.37, 48358.06, 18917.26, 15661.49, 28322.39, 44517.86, 9324.03, 4718.36, 37938.87, 15272.37, 0.92, 0.26, -0.21
20, 11891.11, 51274.48, 49013.21, 41774.40, 12603.81, 30723.41, 73897.37, 48358.06, 18916.04, 15651.52, 28312.35, 44508.74, 9311.16, 4695.12, 37922.28, 15257.95, 0.00, 0.00, 0.00
21, 11894.44, 51277.52, 49000.23, 41770.02, 12582.47, 30696.23, 73823.56, 48319.20, 18916.04, 15651.52, 28312.35, 44508.74, 9311.16, 4695.12, 37922.28, 15257.95, 0.00, 0.00, 0.00
22, 11894.44, 51277.52, 49000.23, 41770.02, 12582.47, 30696.23, 73823.56, 48319.20, 18911.59, 15657.46, 28315.44, 44506.21, 9335.99, 4707.52, 37935.45, 15264.68, 0.00, 0.00, 0.00
23, 11877.92, 51263.43, 49010.09, 41775.52, 12606.00, 30728.73, 73902.87, 48362.87, 18911.59, 15657.46, 28315.44, 44506.21, 9335.99, 4707.52, 37935.45, 15264.68, 0.00, 0.00, 0.00
24, 11877.92, 51263.43, 49010.09, 41775.52, 12606.00, 30728.73, 73902.87, 48362.87, 18911.30, 15643.16, 28312.60, 44525.32, 9330.27, 4690.13, 37933.73, 15269.12, 0.00, 0.00, 0.00
25, 11889.41, 51273.40, 49001.37, 41775.16, 12585.08, 30702.56, 73827.77, 48319.46, 18911.30, 15643.16, 28312.60, 44525.32, 9330.27, 4690.13, 37933.73, 15269.12, 0.00, 0.00, 0.00
26, 11889.41, 51273.40, 49001.37, 41775.16, 12585.08, 30702.56, 73827.77, 48319.46, 18917.38, 15645.46, 28313.36, 44498.30, 9347.75, 4696.28, 37927.73, 15263.42, 0.00, 0.00, 0.00
27, 11879.79, 51264.17, 49013.55, 41781.89, 12612.15, 30729.89, 73894.89, 48357.98, 18917.38, 15645.46, 28313.36, 44498.30, 9347.75, 4696.28, 37927.73, 15263.42, 0.00, 0.00, 0.00
28, 11879.79, 51264.17, 49013.55, 41781.89, 12612.15, 30729.89, 73894.89, 48357.98, 18917.35, 15635.74, 28314.05, 44534.24, 9344.46, 4686.00, 37939.83, 15275.58, 0.91, 0.26, -0.21
29, 11882.59, 51263.93, 48997.88, 41775.54, 12588.30, 30699.52, 73820.14, 48313.36, 18917.35, 15635.74, 28314.05, 44534.24, 9344.46, 4686.00, 37939.83, 15275.58, 0.00, 0.00, 0.00
30, 11882.59, 51263.93, 48997.88, 41775.54, 12588.30, 30699.52, 73820.14, 48313.36, 18920.19, 15633.66, 28304.13, 44476.77, 9353.87, 4683.61, 37916.94, 15252.52, 0.00, 0.00, 0.00
31, 11873.87, 51260.82, 49008.77, 41777.78, 12614.30, 30720.86, 73871.64, 48343.49, 18920.19, 15633.66, 28304.13, 44476.77, 9353.87, 4683.61, 37916.94, 15252.52, 0.00, 0.00, 0.00
32, 11873.87, 51260.82, 49008.77, 41777.78, 12614.30, 30720.86, 73871.64, 48343.49, 18915.88, 15634.13, 28318.70, 44545.24, 9359.30, 4688.61, 37946.42, 15276.08, 0.00, 0.00, 0.00
33, 11876.51, 51259.84, 48992.90, 41764.52, 12585.82, 30701.26, 73825.55, 48319.98, 18915.88, 15634.13, 28318.70, 44545.24, 9359.30, 4688.61, 37946.42, 15276.08, 0.00, 0.00, 0.00
34, 11876.51, 51259.84, 48992.90, 41764.52, 12585.82, 30701.26, 73825.55, 48319.98, 18916.91, 15630.33, 28311.14, 44482.43, 9354.56, 4675.69, 37914.35, 15242.59, 0.00, 0.00, 0.00
35, 11874.21, 51258.18, 48999.45, 41767.03, 12609.18, 30720.06, 73877.36, 48347.18, 18916.91, 15630.33, 28311.14, 44482.43, 9354.56, 4675.69, 37914.35, 15242.59, 0.00, 0.00, 0.00
36, 11874.21, 51258.18, 48999.45, 41767.03, 12609.18, 30720.06, 73877.36, 48347.18, 18922.27, 15640.05, 28333.76, 44570.05, 9368.53, 4685.42, 37951.43, 15269.84, 0.00, 0.00, 0.00
37, 11876.11, 51263.39, 48985.39, 41760.63, 12583.52, 30701.04, 73840.75, 48329.07, 18922.27, 15640.05, 28333.76, 44570.05, 9368.53, 4685.42, 37951.43, 15269.84, 0.00, 0.00, 0.00
38, 11876.11, 51263.39, 48985.39, 41760.63, 12583.52, 30701.04, 73840.75, 48329.07, 18917.55, 15632.54, 28315.08, 44489.54, 9358.07, 4670.71, 37903.37, 15228.76, 0.92, 0.26, -0.21
39, 11869.87, 51263.95, 48995.04, 41770.96, 12601.89, 30713.38, 73867.44, 48342.91, 18917.55, 15632.54, 28315.08, 44489.54, 9358.07, 4670.71, 37903.37, 15228.76, 0.00, 0.00, 0.00
40, 11869.87, 51263.95, 48995.04, 41770.96, 12601.89, 30713.38, 73867.44, 48342.91, 18912.19, 15638.89, 28334.43, 44586.01, 9376.38, 4687.63, 37951.94, 15264.88, 0.00, 0.00, 0.00
41, 11881.67, 51278.03, 48990.48, 41764.66, 12579.67, 30695.52, 73834.00, 48324.49, 18912.19, 15638.89, 28334.43, 44586.01, 9376.38, 4687.63, 37951.94, 15264.88, 0.00, 0.00, 0.00
42, 11881.67, 51278.03, 48990.48, 41764.66, 12579.67, 30695.52, 73834.00, 48324.49, 18916.79, 15636.74, 28316.13, 44489.74, 9370.21, 4673.79, 37906.93, 15219.82, 0.00, 0.00, 0.00
43, 11866.50, 51271.52, 49001.82, 41773.26, 12603.66, 30716.26, 73857.49, 48345.41, 18916.79, 15636.74, 28316.13, 44489.74, 9370.21, 4673.79, 37906.93, 15219.82, 0.00, 0.00, 0.00
44, 11866.50, 51271.52, 49001.82, 41773.26, 12603.66, 30716.26, 73857.49, 48345.41, 18906.89, 15655.97, 28347.22, 44609.88, 9395.73, 4699.83, 37976.42, 15278.78, 0.00, 0.00, 0.00
45, 11879.33, 51277.67, 48993.95, 41769.48, 12585.89, 30710.92, 73856.04, 48343.38, 18906.89, 15655.97, 28347.22, 44609.88, 9395.73, 4699.83, 37976.42, 15278.78, 0.00, 0.00, 0.00
46, 11879.33, 51277.67, 48993.95, 41769.48, 12585.89, 30710.92, 73856.04, 48343.38, 18919.83, 15651.52, 28319.79, 44507.78, 9377.76, 4681.89, 37919.78, 15233.18, 0.00, 0.00, 0.00
47, 11877.22, 51288.96, 49007.16, 41785.94, 12603.14, 30720.48, 73854.63, 48350.27, 18919.83, 15651.52, 28319.79, 44507.78, 9377.76, 4681.89, 37919.78, 15233.18, 0.00, 0.00, 0.00
48, 11877.22, 51288.96, 49007.16, 41785.94, 12603.14, 30720.48, 73854.63, 48350.27, 18925.45, 15671.19, 28352.49, 44620.36, 9414.08, 4717.47, 37981.43, 15287.07, 0.92, 0.26, -0.21
49, 11891.19, 51304.67, 49008.77, 41792.89, 12593.35, 30727.84, 73870.88, 48356.70, 18925.45, 15671.19, 28352.49, 44620.36, 9414.08, 4717.47, 37981.43, 15287.07, 0.00, 0.00, 0.00
50, 11891.19, 51304.67, 49008.77, 41792.89, 12593.35, 30727.84, 73870.88, 48356.70, 18933.58, 15658.49, 28321.43, 44521.25, 9392.85, 4688.90, 37917.52, 15238.90, 0.00, 0.00, 0.00
51, 11883.95, 51294.50, 49002.20, 41790.77, 12595.05, 30714.36, 73835.81, 48331.67, 18933.58, 15658.49, 28321.43, 44521.25, 9392.85, 4688.90, 37917.52, 15238.90, 0.00, 0.00, 0.00
52, 11883.95, 51294.50, 49002.20, 41790.77, 12595.05, 30714.36, 73835.81, 48331.67, 18916.26, 15659.05, 28338.10, 44613.70, 9418.02, 4706.85, 37967.99, 15281.19, 0.00, 0.00, 0.00
53, 11867.99, 51274.07, 48988.88, 41767.95, 12586.85, 30717.46, 73871.09, 48341.10, 18916.26, 15659.05, 28338.10, 44613.70, 9418.02, 4706.85, 37967.99, 15281.19, 0.00, 0.00, 0.00
54, 11867.99, 51274.07, 48988.88, 41767.95, 12586.85, 30717.46, 73871.09, 48341.10, 18926.76, 15632.50, 28302.27, 44513.50, 9390.53, 4669.84, 37906.97, 15234.23, 0.00, 0.00, 0.00
55, 11881.32, 51279.84, 48998.09, 41775.68, 12589.84, 30694.42, 73813.28, 48315.80, 18926.76, 15632.50, 28302.27, 44513.50, 9390.53, 4669.84, 37906.97, 15234.23, 0.00, 0.00, 0.00
56, 11881.32, 51279.84, 48998.09, 41775.68, 12589.84, 30694.42, 73813.28, 48315.80, 18927.46, 15643.49, 28323.86, 44579.26, 9429.28, 4691.88, 37954.96, 15270.06, 0.00, 0.00, 0.00
57, 11873.49, 51278.19, 49000.52, 41774.40, 12598.83, 30703.00, 73856.53, 48330.86, 18927.46, 15643.49, 28323.86, 44579.26, 9429.28, 4691.88, 37954.96, 15270.06, 0.00, 0.00, 0.00
58, 11873.49, 51278.19, 49000.52, 41774.40, 12598.83, 30703.00, 73856.53, 48330.86, 18929.47, 15632.56, 28307.57, 44509.56, 9408.50, 4663.71, 37907.24, 15238.88, 0.91, 0.26, -0.21
59, 11872.55, 51280.49, 48998.75, 41769.89, 12590.98, 30701.48, 73822.02, 48318.97, 18929.47, 15632.56, 28307.57, 44509.56, 9408.50, 4663.71, 37907.24, 15238.88, 0.00, 0.00, 0.00
60, 11872.55, 51280.49, 48998.75, 41769.89, 12590.98, 30701.48, 73822.02, 48318.97, 18924.53, 15649.30, 28331.75, 44580.98, 9434.65, 4690.58, 37958.54, 15280.03, 0.00, 0.00, 0.00
61, 11874.05, 51282.25, 49002.71, 41769.44, 12601.71, 30717.26, 73882.82, 48348.23, 18924.53, 15649.30, 28331.75, 44580.98, 9434.65, 4690.58, 37958.54, 15280.03, 0.00, 0.00, 0.00
62, 11874.05, 51282.25, 49002.71, 41769.44, 12601.71, 30717.26, 73882.82, 48348.23, 18934.10, 15633.41, 28305.38, 44517.25, 9416.32, 4665.03, 37916.78, 15245.01, 0.00, 0.00, 0.00
63, 11874.50, 51278.81, 48994.84, 41771.09, 12594.34, 30697.84, 73822.22, 48316.56, 18934.10, 15633.41, 28305.38, 44517.25, 9416.32, 4665.03, 37916.78, 15245.01, 0.00, 0.00, 0.00
64, 11874.50, 51278.81, 48994.84, 41771.09, 12594.34, 30697.84, 73822.22, 48316.56, 18930.54, 15642.11, 28319.73, 44555.12, 9451.14, 4691.05, 37954.56, 15273.59, 0.00, 0.00, 0.00
65, 11862.27, 51268.17, 48997.19, 41770.56, 12610.67, 30723.23, 73896.01, 48355.89, 18930.54, 15642.11, 28319.73, 44555.12, 9451.14, 4691.05, 37954.56, 15273.59, 0.00, 0.00, 0.00
66, 11862.27, 51268.17, 48997.19, 41770.56, 12610.67, 30723.23, 73896.01, 48355.89, 18931.48, 15630.28, 28305.35, 44522.15, 9435.65, 4667.47, 37930.35, 15256.34, 0.00, 0.00, 0.00
67, 11867.93, 51277.16, 48989.37, 41768.99, 12591.77, 30696.63, 73827.56, 48316.07, 18931.48, 15630.28, 28305.35, 44522.15, 9435.65, 4667.47, 37930.35, 15256.34, 0.00, 0.00, 0.00
68, 11867.93, 51277.16, 48989.37, 41768.99, 12591.77, 30696.63, 73827.56, 48316.07, 18921.22, 15637.32, 28313.38, 44529.66, 9459.97, 4685.04, 37950.54, 15263.51, 0.92, 0.26, -0.21
69, 11855.19, 51263.34, 48993.75, 41772.64, 12614.97, 30716.21, 73890.80, 48346.64, 18921.22, 15637.32, 28313.38, 44529.66, 9459.97, 4685.04, 37950.54, 15263.51, 0.00, 0.00, 0.00
70, 11855.19, 51263.34, 48993.75, 41772.64, 12614.97, 30716.21, 73890.80, 48346.64, 18919.75, 15627.15, 28303.92, 44522.95, 9445.02, 4672.50, 37932.25, 15254.46, 0.00, 0.00, 0.00
71, 11862.16, 51270.18, 48985.07, 41771.83, 12589.20, 30691.22, 73823.18, 48313.99, 18919.75, 15627.15, 28303.92, 44522.95, 9445.02, 4672.50, 37932.25, 15254.46, 0.00, 0.00, 0.00
72, 11862.16, 51270.18, 48985.07, 41771.83, 12589.20, 30691.22, 73823.18, 48313.99, 18922.00, 15638.33, 28310.23, 44515.24, 9465.25, 4688.03, 37938.75, 15261.99, 0.00, 0.00, 0.00
73, 11849.38, 51261.55, 48996.23, 41772.64, 12609.62, 30726.29, 73915.70, 48366.74, 18922.00, 15638.33, 28310.23, 44515.24, 9465.25, 4688.03, 37938.75, 15261.99, 0.00, 0.00, 0.00
74, 11849.38, 51261.55, 48996.23, 41772.64, 12609.62, 30726.29, 73915.70, 48366.74, 18922.72, 15634.67, 28312.37, 44547.96, 9454.32, 4679.38, 37942.22, 15271.23, 0.00, 0.00, 0.00
75, 11868.78, 51276.22, 48987.85, 41764.05, 12578.13, 30695.27, 73843.95, 48321.63, 18922.72, 15634.67, 28312.37, 44547.96, 9454.32, 4679.38, 37942.22, 15271.23, 0.00, 0.00, 0.00
76, 11868.78, 51276.22, 48987.85, 41764.05, 12578.13, 30695.27, 73843.95, 48321.63, 18921.44, 15640.43, 28311.81, 44512.76, 9453.33, 4686.91, 37932.25, 15262.08, 0.00, 0.00, 0.00
77, 11851.63, 51265.33, 48998.55, 41772.08, 12606.74, 30731.32, 73921.98, 48369.98, 18921.44, 15640.43, 28311.81, 44512.76, 9453.33, 4686.91, 37932.25, 15262.08, 0.00, 0.00, 0.00
78, 11851.63, 51265.33, 48998.55, 41772.08, 12606.74, 30731.32, 73921.98, 48369.98, 18917.46, 15640.23, 28322.01, 44575.73, 9452.22, 4683.36, 37953.68, 15286.78, 0.91, 0.26, -0.21
79, 11864.17, 51275.70, 48987.78, 41765.42, 12577.26, 30710.25, 73869.16, 48341.34, 18917.46, 15640.23, 28322.01, 44575.73, 9452.22, 4683.36, 37953.68, 15286.78, 0.00, 0.00, 0.00
80, 11864.17, 51275.70, 48987.78, 41765.42, 12577.26, 30710.25, 73869.16, 48341.34, 18918.74, 15640.57, 28312.08, 44519.96, 9445.42, 4675.27, 37925.84, 15263.02, 0.00, 0.00, 0.00
81, 11863.66, 51276.69, 48998.24, 41776.59, 12604.98, 30725.18, 73921.66, 48367.65, 18918.74, 15640.57, 28312.08, 44519.96, 9445.42, 4675.27, 37925.84, 15263.02, 0.00, 0.00, 0.00
82, 11863.66, 51276.69, 48998.24, 41776.59, 12604.98, 30725.18, 73921.66, 48367.65, 18924.84, 15643.20, 28325.72, 44585.76, 9450.27, 4677.21, 37955.45, 15288.12, 0.00, 0.00, 0.00
83, 11880.89, 51290.52, 48989.66, 41767.70, 12586.56, 30699.65, 73864.11, 48336.61, 18924.84, 15643.20, 28325.72, 44585.76, 9450.27, 4677.21, 37955.45, 15288.12, 0.00, 0.00, 0.00
84, 11880.89, 51290.52, 48989.66, 41767.70, 12586.56, 30699.65, 73864.11, 48336.61, 18933.92, 15635.56, 28310.67, 44498.12, 9430.78, 4666.95, 37918.01, 15246.21, 0.00, 0.00, 0.00
85, 11876.02, 51276.96, 49001.53, 41771.95, 12617.16, 30711.07, 73891.40, 48346.02, 18933.92, 15635.56, 28310.67, 44498.12, 9430.78, 4666.95, 37918.01, 15246.21, 0.00, 0.00, 0.00
86, 11876.02, 51276.96, 49001.53, 41771.95, 12617.16, 30711.07, 73891.40, 48346.02, 18927.01, 15637.08, 28332.91, 44587.17, 9422.29, 4683.67, 37963.18, 15281.40, 0.00, 0.00, 0.00
87, 11873.20, 51272.04, 48987.09, 41763.27, 12592.10, 30701.84, 73862.77, 48330.46, 18927.01, 15637.08, 28332.91, 44587.17, 9422.29, 4683.67, 37963.18, 15281.40, 0.00, 0.00, 0.00
88, 11873.20, 51272.04, 48987.09, 41763.27, 12592.10, 30701.84, 73862.77, 48330.46, 18926.43, 15629.95, 28314.29, 44500.45, 9378.23, 4673.84, 37916.98, 15239.75, 0.91, 0.25, -0.21
89, 11874.61, 51275.88, 49004.21, 41780.73, 12606.79, 30713.22, 73880.36, 48340.36, 18926.43, 15629.95, 28314.29, 44500.45, 9378.23, 4673.84, 37916.98, 15239.75, 0.00, 0.00, 0.00
90, 11874.61, 51275.88, 49004.21, 41780.73, 12606.79, 30713.22, 73880.36, 48340.36, 18926.34, 15644.95, 28331.77, 44590.19, 9369.54, 4700.73, 37966.58, 15277.01, 0.00, 0.00, 0.00
91, 11874.88, 51276.73, 48992.12, 41767.59, 12585.93, 30700.16, 73854.52, 48323.78, 18926.34, 15644.95, 28331.77, 44590.19, 9369.54, 4700.73, 37966.58, 15277.01, 0.00, 0.00, 0.00
92, 11874.88, 51276.73, 48992.12, 41767.59, 12585.93, 30700.16, 73854.52, 48323.78, 18920.48, 15640.68, 28306.70, 44495.55, 9320.54, 4679.70, 37914.19, 15233.85, 0.00, 0.00, 0.00
93, 11874.83, 51282.59, 48997.19, 41771.96, 12605.06, 30712.77, 73863.53, 48331.46, 18920.48, 15640.68, 28306.70, 44495.55, 9320.54, 4679.70, 37914.19, 15233.85, 0.00, 0.00, 0.00
94, 11874.83, 51282.59, 48997.19, 41771.96, 12605.06, 30712.77, 73863.53, 48331.46, 18925.18, 15654.60, 28337.12, 44600.42, 9327.99, 4704.84, 37970.32, 15283.63, 0.00, 0.00, 0.00
95, 11884.06, 51288.16, 48993.79, 41765.30, 12595.32, 30708.79, 73865.52, 48326.37, 18925.18, 15654.60, 28337.12, 44600.42, 9327.99, 4704.84, 37970.32, 15283.63, 0.00, 0.00, 0.00
96, 11884.06, 51288.16, 48993.79, 41765.30, 12595.32, 30708.79, 73865.52, 48326.37, 18933.87, 15643.40, 28309.22, 44496.44, 9292.04, 4679.78, 37911.89, 15236.67, 0.00, 0.00, 0.00
97, 11884.51, 51281.72, 49004.19, 41776.23, 12609.71, 30710.67, 73852.42, 48320.85, 18933.87, 15643.40, 28309.22, 44496.44, 9292.04, 4679.78, 37911.89, 15236.67, 0.00, 0.00, 0.00
98, 11884.51, 51281.72, 49004.19, 41776.23, 12609.71, 30710.67, 73852.42, 48320.85, 18924.71, 15651.70, 28334.97, 44599.84, 9304.74, 4704.77, 37968.32, 15286.63, 0.91, 0.25, -0.21
99, 11880.80, 51277.74, 48994.69, 41767.14, 12595.97, 30711.32, 73867.73, 48324.47, 18924.71, 15651.70, 28334.97, 44599.84, 9304.74, 4704.77, 37968.32, 15286.63, 0.00, 0.00, 0.00
100, 11880.80, 51277.74, 48994.69, 41767.14, 12595.97, 30711.32, 73867.73, 48324.47, 18925.09, 15636.45, 28301.96, 44500.45, 9266.45, 4676.74, 37905.11, 15236.09, 0.00, 0.00, 0.00
101, 11877.69, 51282.30, 48997.77, 41771.92, 12600.71, 30709.96, 73840.62, 48312.67, 18925.09, 15636.45, 28301.96, 44500.45, 9266.45, 4676.74, 37905.11, 15236.09, 0.00, 0.00, 0.00
102, 11877.69, 51282.30, 48997.77, 41771.92, 12600.71, 30709.96, 73840.62, 48312.67, 18914.31, 15654.36, 28328.67, 44601.94, 9288.83, 4708.19, 37965.42, 15284.01, 0.00, 0.00, 0.00
103, 11871.77, 51277.45, 48993.43, 41762.45, 12594.69, 30722.07, 73889.32, 48335.55, 18914.31, 15654.36, 28328.67, 44601.94, 9288.83, 4708.19, 37965.42, 15284.01, 0.00, 0.00, 0.00
104, 11871.77, 51277.45, 48993.43, 41762.45, 12594.69, 30722.07, 73889.32, 48335.55, 18923.90, 15642.80, 28304.79, 44520.70, 9255.77, 4679.20, 37911.87, 15244.96, 0.00, 0.00, 0.00
105, 11875.41, 51284.76, 48995.58, 41759.58, 12598.27, 30709.69, 73846.52, 48314.50, 18923.90, 15642.80, 28304.79, 44520.70, 9255.77, 4679.20, 37911.87, 15244.96, 0.00, 0.00, 0.00
106, 11875.41, 51284.76, 48995.58, 41759.58, 12598.27, 30709.69, 73846.52, 48314.50, 18910.89, 15654.47, 28330.75, 44602.61, 9283.35, 4702.72, 37966.36, 15286.16, 0.00, 0.00, 0.00
107, 11868.69, 51275.97, 48997.59, 41752.72, 12602.49, 30724.66, 73901.70, 48341.41, 18910.89, 15654.47, 28330.75, 44602.61, 9283.35, 4702.72, 37966.36, 15286.16, 0.00, 0.00, 0.00
108, 11868.69, 51275.97, 48997.59, 41752.72, 12602.49, 30724.66, 73901.70, 48341.41, 18917.33, 15637.06, 28305.87, 44524.54, 9253.82, 4670.69, 37915.15, 15244.27, 0.91, 0.26, -0.21
109, 11863.70, 51272.71, 48995.49, 41751.67, 12597.40, 30714.27, 73858.41, 48324.38, 18917.33, 15637.06, 28305.87, 44524.54, 9253.82, 4670.69, 37915.15, 15244.27, 0.00, 0.00, 0.00
110, 11863.70, 51272.71, 48995.49, 41751.67, 12597.40, 30714.27, 73858.41, 48324.38, 18906.87, 15651.76, 28334.17, 44599.62, 9280.71, 4698.54, 37960.91, 15284.95, 0.00, 0.00, 0.00
111, 11868.15, 51274.50, 48988.52, 41747.16, 12598.90, 30732.22, 73927.97, 48358.60, 18906.87, 15651.76, 28334.17, 44599.62, 9280.71, 4698.54, 37960.91, 15284.95, 0.00, 0.00, 0.00
112, 11868.15, 51274.50, 48988.52, 41747.16, 12598.90, 30732.22, 73927.97, 48358.60, 18918.74, 15639.72, 28315.03, 44548.32, 9254.90, 4675.31, 37921.19, 15255.49, 0.00, 0.00, 0.00
113, 11876.22, 51284.09, 48988.72, 41750.33, 12587.54, 30713.46, 73874.01, 48330.97, 18918.74, 15639.72, 28315.03, 44548.32, 9254.90, 4675.31, 37921.19, 15255.49, 0.00, 0.00, 0.00
114, 11876.22, 51284.09, 48988.72, 41750.33, 12587.54, 30713.46, 73874.01, 48330.97, 18914.65, 15648.72, 28329.74, 44586.45, 9279.59, 4699.14, 37955.74, 15282.27, 0.00, 0.00, 0.00
115, 11860.73, 51269.38, 48987.80, 41751.43, 12599.79, 30740.31, 73953.67, 48374.31, 18914.65, 15648.72, 28329.74, 44586.45, 9279.59, 4699.14, 37955.74, 15282.27, 0.00, 0.00, 0.00
116, 11860.73, 51269.38, 48987.80, 41751.43, 12599.79, 30740.31, 73953.67, 48374.31, 18910.65, 15633.08, 28310.85, 44562.29, 9253.31, 4674.22, 37932.07, 15260.16, 0.00, 0.00, 0.00
117, 11875.41, 51281.34, 48976.40, 41747.16, 12577.46, 30706.00, 73872.53, 48331.87, 18910.65, 15633.08, 28310.85, 44562.29, 9253.31, 4674.22, 37932.07, 15260.16, 0.00, 0.00, 0.00
118, 11875.41, 51281.34, 48976.40, 41747.16, 12577.46, 30706.00, 73872.53, 48331.87, 18913.02, 15643.99, 28316.24, 44557.91, 9279.06, 4695.16, 37943.80, 15262.67, 0.92, 0.26, -0.20
119, 11869.49, 51274.57, 48990.82, 41757.73, 12607.32, 30724.88, 73936.06, 48364.73, 18913.02, 15643.99, 28316.24, 44557.91, 9279.06, 4695.16, 37943.80, 15262.67, 0.00, 0.00, 0.00
120, 11869.49, 51274.57, 48990.82, 41757.73, 12607.32, 30724.88, 73936.06, 48364.73, 18918.16, 15635.51, 28310.41, 44557.98, 9269.80, 4681.80, 37930.24, 15251.80, 0.00, 0.00, 0.00
121, 11880.80, 51282.41, 48989.79, 41755.80, 12588.21, 30692.77, 73854.43, 48319.71, 18918.16, 15635.51, 28310.41, 44557.98, 9269.80, 4681.80, 37930.24, 15251.80, 0.00, 0.00, 0.00
122, 11880.80, 51282.41, 48989.79, 41755.80, 12588.21, 30692.77, 73854.43, 48319.71, 18915.12, 15644.50, 28316.46, 44544.84, 9286.52, 4693.93, 37932.56, 15252.58, 0.00, 0.00, 0.00
123, 11865.96, 51272.31, 48996.18, 41761.42, 12611.52, 30726.92, 73938.72, 48366.87, 18915.12, 15644.50, 28316.46, 44544.84, 9286.52, 4693.93, 37932.56, 15252.58, 0.00, 0.00, 0.00
124, 11865.96, 51272.31, 48996.18, 41761.42, 12611.52, 30726.92, 73938.72, 48366.87, 18917.96, 15640.59, 28317.18, 44578.88, 9283.28, 4685.08, 37942.33, 15263.74, 0.00, 0.00, 0.00
125, 11871.44, 51274.25, 48979.73, 41750.82, 12583.76, 30706.89, 73878.37, 48337.46, 18917.96, 15640.59, 28317.18, 44578.88, 9283.28, 4685.08, 37942.33, 15263.74, 0.00, 0.00, 0.00
126, 11871.44, 51274.25, 48979.73, 41750.82, 12583.76, 30706.89, 73878.37, 48337.46, 18912.15, 15643.18, 28310.96, 44538.46, 9296.11, 4690.00, 37938.55, 15256.45, 0.00, 0.00, 0.00
127, 11863.72, 51268.15, 48988.68, 41756.36, 12606.45, 30732.82, 73946.59, 48373.13, 18912.15, 15643.18, 28310.96, 44538.46, 9296.11, 4690.00, 37938.55, 15256.45, 0.00, 0.00, 0.00
128, 11863.72, 51268.15, 48988.68, 41756.36, 12606.45, 30732.82, 73946.59, 48373.13, 18913.67, 15643.85, 28317.16, 44589.11, 9306.24, 4694.11, 37960.05, 15278.13, 0.91, 0.26, -0.21
129, 11869.38, 51269.45, 48982.21, 41754.11, 12585.71, 30709.78, 73888.09, 48339.22, 18913.67, 15643.85, 28317.16, 44589.11, 9306.24, 4694.11, 37960.05, 15278.13, 0.00, 0.00, 0.00
130, 11869.38, 51269.45, 48982.21, 41754.11, 12585.71, 30709.78, 73888.09, 48339.22, 18913.73, 15642.93, 28308.62, 44528.85, 9308.45, 4688.03, 37930.89, 15252.18, 0.00, 0.00, 0.00
131, 11865.22, 51268.17, 48993.35, 41764.05, 12608.75, 30728.48, 73937.13, 48361.46, 18913.73, 15642.93, 28308.62, 44528.85, 9308.45, 4688.03, 37930.89, 15252.18, 0.00, 0.00, 0.00
132, 11865.22, 51268.17, 48993.35, 41764.05, 12608.75, 30728.48, 73937.13, 48361.46, 18920.06, 15652.50, 28326.99, 44602.84, 9322.04, 4695.25, 37966.09, 15279.58, 0.00, 0.00, 0.00
133, 11881.94, 51275.55, 48986.66, 41764.28, 12585.22, 30706.98, 73881.50, 48334.86, 18920.06, 15652.50, 28326.99, 44602.84, 9322.04, 4695.25, 37966.09, 15279.58, 0.00, 0.00, 0.00
134, 11881.94, 51275.55, 48986.66, 41764.28, 12585.22, 30706.98, 73881.50, 48334.86, 18923.48, 15647.99, 28312.17, 44517.95, 9316.68, 4681.57, 37924.85, 15236.02, 0.00, 0.00, 0.00
135, 11872.87, 51269.60, 48998.20, 41768.95, 12610.03, 30725.31, 73918.47, 48352.36, 18923.48, 15647.99, 28312.17, 44517.95, 9316.68, 4681.57, 37924.85, 15236.02, 0.00, 0.00, 0.00
136, 11872.87, 51269.60, 48998.20, 41768.95, 12610.03, 30725.31, 73918.47, 48352.36, 18914.34, 15653.73, 28337.90, 44616.58, 9331.85, 4698.76, 37973.78, 15277.24, 0.00, 0.00, 0.00
137, 11869.38, 51268.71, 48986.06, 41758.38, 12588.30, 30718.22, 73904.84, 48344.65, 18914.34, 15653.73, 28337.90, 44616.58, 9331.85, 4698.76, 37973.78, 15277.24, 0.00, 0.00, 0.00
138, 11869.38, 51268.71, 48986.06, 41758.38, 12588.30, 30718.22, 73904.84, 48344.65, 18919.14, 15641.55, 28309.65, 44515.82, 9311.11, 4675.69, 37918.04, 15228.89, 0.91, 0.26, -0.21
139, 11868.33, 51272.87, 48994.29, 41770.20, 12606.23, 30720.77, 73908.34, 48344.92, 18919.14, 15641.55, 28309.65, 44515.82, 9311.11, 4675.69, 37918.04, 15228.89, 0.00, 0.00, 0.00
140, 11868.33, 51272.87, 48994.29, 41770.20, 12606.23, 30720.77, 73908.34, 48344.92, 18916.06, 15650.56, 28332.76, 44613.19, 9331.90, 4697.00, 37969.11, 15270.58, 0.00, 0.00, 0.00
141, 11873.56, 51271.73, 48983.22, 41763.47, 12590.74, 30716.35, 73901.68, 48341.37, 18916.06, 15650.56, 28332.76, 44613.19, 9331.90, 4697.00, 37969.11, 15270.58, 0.00, 0.00, 0.00
142, 11873.56, 51271.73, 48983.22, 41763.47, 12590.74, 30716.35, 73901.68, 48341.37, 18919.03, 15636.77, 28301.85, 44508.09, 9309.79, 4676.52, 37909.41, 15221.13, 0.00, 0.00, 0.00
143, 11869.94, 51274.72, 48988.32, 41763.38, 12603.59, 30721.15, 73897.10, 48338.62, 18919.03, 15636.77, 28301.85, 44508.09, 9309.79, 4676.52, 37909.41, 15221.13, 0.00, 0.00, 0.00
144, 11869.94, 51274.72, 48988.32, 41763.38, 12603.59, 30721.15, 73897.10, 48338.62, 18912.15, 15650.60, 28325.29, 44610.73, 9333.42, 4703.92, 37968.57, 15271.00, 0.00, 0.00, 0.00
145, 11870.36, 51277.70, 48980.79, 41748.59, 12592.41, 30719.99, 73904.86, 48339.20, 18912.15, 15650.60, 28325.29, 44610.73, 9333.42, 4703.92, 37968.57, 15271.00, 0.00, 0.00, 0.00
146, 11870.36, 51277.70, 48980.79, 41748.59, 12592.41, 30719.99, 73904.86, 48339.20, 18910.67, 15637.62, 28301.40, 44518.41, 9311.58, 4675.54, 37913.30, 15225.45, 0.00, 0.00, 0.00
147, 11865.29, 51272.62, 48983.91, 41746.91, 12602.76, 30720.97, 73895.18, 48338.98, 18910.67, 15637.62, 28301.40, 44518.41, 9311.58, 4675.54, 37913.30, 15225.45, 0.00, 0.00, 0.00
148, 11865.29, 51272.62, 48983.91, 41746.91, 12602.76, 30720.97, 73895.18, 48338.98, 18912.06, 15647.79, 28324.82, 44614.66, 9343.32, 4699.99, 37972.75, 15273.10, 0.92, 0.25, -0.21
149, 11870.65, 51274.88, 48986.62, 41747.60, 12594.87, 30715.59, 73911.09, 48337.12, 18912.06, 15647.79, 28324.82, 44614.66, 9343.32, 4699.99, 37972.75, 15273.10, 0.00, 0.00, 0.00
150, 11870.65, 51274.88, 48986.62, 41747.60, 12594.87, 30715.59, 73911.09, 48337.12, 18925.60, 15637.26, 28299.83, 44513.07, 9321.95, 4672.59, 37915.38, 15228.22, 0.00, 0.00, 0.00
151, 11878.70, 51281.34, 49003.85, 41765.89, 12604.51, 30710.63, 73870.21, 48324.98, 18925.60, 15637.26, 28299.83, 44513.07, 9321.95, 4672.59, 37915.38, 15228.22, 0.00, 0.00, 0.00
152, 11878.70, 51281.34, 49003.85, 41765.89, 12604.51, 30710.63, 73870.21, 48324.98, 18926.18, 15653.87, 28329.45, 44595.48, 9360.26, 4706.18, 37975.32, 15277.04, 0.00, 0.00, 0.00
153, 11873.85, 51281.34, 49002.40, 41764.48, 12606.14, 30719.34, 73900.90, 48337.90, 18926.18, 15653.87, 28329.45, 44595.48, 9360.26, 4706.18, 37975.32, 15277.04, 0.00, 0.00, 0.00
154, 11873.85, 51281.34, 49002.40, 41764.48, 12606.14, 30719.34, 73900.90, 48337.90, 18929.40, 15637.37, 28299.54, 44503.93, 9329.35, 4675.78, 37917.14, 15232.04, 0.00, 0.00, 0.00
155, 11868.24, 51283.91, 48996.48, 41768.35, 12601.89, 30707.03, 73854.97, 48312.40, 18929.40, 15637.37, 28299.54, 44503.93, 9329.35, 4675.78, 37917.14, 15232.04, 0.00, 0.00, 0.00
156, 11868.24, 51283.91, 48996.48, 41768.35, 12601.89, 30707.03, 73854.97, 48312.40, 18916.35, 15654.40, 28328.62, 44587.84, 9354.36, 4706.63, 37970.74, 15277.06, 0.00, 0.00, 0.00
157, 11860.75, 51278.50, 48991.25, 41759.45, 12602.18, 30729.27, 73926.13, 48353.73, 18916.35, 15654.40, 28328.62, 44587.84, 9354.36, 4706.63, 37970.74, 15277.06, 0.00, 0.00, 0.00
158, 11860.75, 51278.50, 48991.25, 41759.45, 12602.18, 30729.27, 73926.13, 48353.73, 18920.33, 15639.07, 28301.02, 44524.36, 9324.10, 4678.49, 37922.24, 15244.96, 0.92, 0.26, -0.21
159, 11864.28, 51280.09, 48981.03, 41753.62, 12594.31, 30716.84, 73873.38, 48331.24, 18920.33, 15639.07, 28301.02, 44524.36, 9324.10, 4678.49, 37922.24, 15244.96, 0.00, 0.00, 0.00
160, 11864.28, 51280.09, 48981.03, 41753.62, 12594.31, 30716.84, 73873.38, 48331.24, 18915.68, 15647.47, 28315.55, 44571.37, 9358.36, 4698.27, 37960.61, 15274.69, 0.00, 0.00, 0.00
161, 11860.71, 51281.41, 48984.83, 41751.00, 12608.73, 30727.70, 73921.38, 48348.45, 18915.68, 15647.47, 28315.55, 44571.37, 9358.36, 4698.27, 37960.61, 15274.69, 0.00, 0.00, 0.00
162, 11860.71, 51281.41, 48984.83, 41751.00, 12608.73, 30727.70, 73921.38, 48348.45, 18923.95, 15631.65, 28292.28, 44513.52, 9347.25, 4671.87, 37924.36, 15241.52, 0.00, 0.00, 0.00
163, 11864.93, 51289.07, 48978.71, 41753.37, 12595.23, 30707.18, 73849.65, 48308.85, 18923.95, 15631.65, 28292.28, 44513.52, 9347.25, 4671.87, 37924.36, 15241.52, 0.00, 0.00, 0.00
164, 11864.93, 51289.07, 48978.71, 41753.37, 12595.23, 30707.18, 73849.65, 48308.85, 18915.88, 15645.48, 28310.29, 44543.79, 9377.43, 4697.64, 37954.54, 15265.77, 0.00, 0.00, 0.00
165, 11858.43, 51281.70, 48988.43, 41763.43, 12609.22, 30738.34, 73927.79, 48350.89, 18915.88, 15645.48, 28310.29, 44543.79, 9377.43, 4697.64, 37954.54, 15265.77, 0.00, 0.00, 0.00
166, 11858.43, 51281.70, 48988.43, 41763.43, 12609.22, 30738.34, 73927.79, 48350.89, 18914.54, 15637.03, 28304.04, 44537.64, 9361.04, 4680.79, 37934.60, 15259.13, 0.00, 0.00, 0.00
167, 11867.50, 51285.65, 48984.02, 41763.61, 12583.07, 30719.66, 73869.56, 48324.07, 18914.54, 15637.03, 28304.04, 44537.64, 9361.04, 4680.79, 37934.60, 15259.13, 0.00, 0.00, 0.00
168, 11867.50, 51285.65, 48984.02, 41763.61, 12583.07, 30719.66, 73869.56, 48324.07, 18920.10, 15645.06, 28314.47, 44542.67, 9382.14, 4691.32, 37945.26, 15265.21, 0.92, 0.26, -0.22
169, 11865.49, 51279.75, 48993.77, 41770.89, 12601.96, 30736.98, 73931.92, 48354.31, 18920.10, 15645.06, 28314.47, 44542.67, 9382.14, 4691.32, 37945.26, 15265.21, 0.00, 0.00, 0.00
170, 11865.49, 51279.75, 48993.77, 41770.89, 12601.96, 30736.98, 73931.92, 48354.31, 18924.57, 15637.86, 28307.90, 44544.77, 9374.81, 4677.88, 37934.84, 15260.50, 0.00, 0.00, 0.00
171, 11872.73, 51292.18, 48981.07, 41759.83, 12583.74, 30705.02, 73855.80, 48313.72, 18924.57, 15637.86, 28307.90, 44544.77, 9374.81, 4677.88, 37934.84, 15260.50, 0.00, 0.00, 0.00
172, 11872.73, 51292.18, 48981.07, 41759.83, 12583.74, 30705.02, 73855.80, 48313.72, 18920.06, 15644.03, 28303.88, 44514.05, 9386.46, 4685.17, 37933.32, 15250.97, 0.00, 0.00, 0.00
173, 11859.95, 51289.25, 48988.00, 41763.43, 12606.74, 30728.78, 73919.61, 48346.15, 18920.06, 15644.03, 28303.88, 44514.05, 9386.46, 4685.17, 37933.32, 15250.97, 0.00, 0.00, 0.00
174, 11859.95, 51289.25, 48988.00, 41763.43, 12606.74, 30728.78, 73919.61, 48346.15, 18923.48, 15646.49, 28303.79, 44547.52, 9381.81, 4681.51, 37942.20, 15259.20, 0.00, 0.00, 0.00
175, 11876.40, 51302.19, 48978.93, 41757.93, 12578.20, 30704.54, 73849.31, 48307.73, 18923.48, 15646.49, 28303.79, 44547.52, 9381.81, 4681.51, 37942.20, 15259.20, 0.00, 0.00, 0.00
176, 11876.40, 51302.19, 48978.93, 41757.93, 12578.20, 30704.54, 73849.31, 48307.73, 18929.63, 15649.13, 28302.69, 44500.76, 9392.14, 4688.46, 37929.39, 15242.37, 0.00, 0.00, 0.00
177, 11873.80, 51301.14, 48992.52, 41769.87, 12609.22, 30730.41, 73910.94, 48339.38, 18929.63, 15649.13, 28302.69, 44500.76, 9392.14, 4688.46, 37929.39, 15242.37, 0.00, 0.00, 0.00
178, 11873.80, 51301.14, 48992.52, 41769.87, 12609.22, 30730.41, 73910.94, 48339.38, 18933.42, 15648.41, 28317.31, 44568.24, 9397.43, 4688.43, 37954.51, 15260.38, 0.91, 0.25, -0.21
179, 11889.18, 51309.70, 48981.34, 41761.84, 12583.79, 30704.63, 73850.02, 48307.06, 18933.42, 15648.41, 28317.31, 44568.24, 9397.43, 4688.43, 37954.51, 15260.38, 0.00, 0.00, 0.00
180, 11889.18, 51309.70, 48981.34, 41761.84, 12583.79, 30704.63, 73850.02, 48307.06, 18946.88, 15647.27, 28301.02, 44489.36, 9402.31, 4683.25, 37918.32, 15219.62, 0.00, 0.00, 0.00
181, 11881.16, 51306.17, 48997.59, 41774.20, 12612.62, 30723.07, 73885.92, 48329.03, 18946.88, 15647.27, 28301.02, 44489.36, 9402.31, 4683.25, 37918.32, 15219.62, 0.00, 0.00, 0.00
182, 11881.16, 51306.17, 48997.59, 41774.20, 12612.62, 30723.07, 73885.92, 48329.03, 18928.60, 15653.33, 28324.69, 44586.81, 9421.89, 4697.20, 37966.54, 15253.84, 0.00, 0.00, 0.00
183, 11876.08, 51302.57, 48979.73, 41756.70, 12584.25, 30712.28, 73862.19, 48316.25, 18928.60, 15653.33, 28324.69, 44586.81, 9421.89, 4697.20, 37966.54, 15253.84, 0.00, 0.00, 0.00
184, 11876.08, 51302.57, 48979.73, 41756.70, 12584.25, 30712.28, 73862.19, 48316.25, 18947.93, 15644.46, 28300.55, 44489.22, 9412.83, 4681.84, 37917.25, 15206.94, 0.00, 0.00, 0.00
185, 11882.08, 51311.64, 48994.75, 41774.36, 12612.69, 30722.74, 73878.48, 48327.96, 18947.93, 15644.46, 28300.55, 44489.22, 9412.83, 4681.84, 37917.25, 15206.94, 0.00, 0.00, 0.00
186, 11882.08, 51311.64, 48994.75, 41774.36, 12612.69, 30722.74, 73878.48, 48327.96, 18949.12, 15656.77, 28327.86, 44589.07, 9439.59, 4706.03, 37971.14, 15251.15, 0.00, 0.00, 0.00
187, 11888.29, 51317.50, 48981.99, 41766.40, 12591.74, 30711.03, 73847.23, 48312.85, 18949.12, 15656.77, 28327.86, 44589.07, 9439.59, 4706.03, 37971.14, 15251.15, 0.00, 0.00, 0.00
188, 11888.29, 51317.50, 48981.99, 41766.40, 12591.74, 30711.03, 73847.23, 48312.85, 18958.46, 15653.60, 28304.82, 44489.89, 9426.58, 4689.82, 37918.21, 15209.49, 0.91, 0.26, -0.21
189, 11884.62, 51317.79, 48994.13, 41777.51, 12612.98, 30725.29, 73866.48, 48326.14, 18958.46, 15653.60, 28304.82, 44489.89, 9426.58, 4689.82, 37918.21, 15209.49, 0.00, 0.00, 0.00
190, 11884.62, 51317.79, 48994.13, 41777.51, 12612.98, 30725.29, 73866.48, 48326.14, 18954.01, 15673.60, 28334.50, 44602.41, 9455.66, 4714.12, 37977.60, 15266.75, 0.00, 0.00, 0.00
191, 11895.02, 51327.72, 48984.74, 41771.68, 12594.38, 30717.64, 73853.73, 48318.34, 18954.01, 15673.60, 28334.50, 44602.41, 9455.66, 4714.12, 37977.60, 15266.75, 0.00, 0.00, 0.00
192, 11895.02, 51327.72, 48984.74, 41771.68, 12594.38, 30717.64, 73853.73, 48318.34, 18961.39, 15661.55, 28305.98, 44493.71, 9439.19, 4690.89, 37915.42, 15216.53, 0.00, 0.00, 0.00
193, 11878.59, 51313.37, 48988.36, 41770.78, 12610.94, 30719.34, 73850.45, 48319.82, 18961.39, 15661.55, 28305.98, 44493.71, 9439.19, 4690.89, 37915.42, 15216.53, 0.00, 0.00, 0.00
194, 11878.59, 51313.37, 48988.36, 41770.78, 12610.94, 30719.34, 73850.45, 48319.82, 18939.28, 15657.37, 28330.19, 44599.51, 9458.50, 4700.68, 37971.90, 15262.15, 0.00, 0.00, 0.00
195, 11867.57, 51295.22, 48967.39, 41745.10, 12589.60, 30703.99, 73862.70, 48317.54, 18939.28, 15657.37, 28330.19, 44599.51, 9458.50, 4700.68, 37971.90, 15262.15, 0.00, 0.00, 0.00
196, 11867.57, 51295.22, 48967.39, 41745.10, 12589.60, 30703.99, 73862.70, 48317.54, 18954.35, 15633.32, 28290.47, 44477.11, 9431.70, 4662.55, 37902.97, 15200.84, 0.00, 0.00, 0.00
197, 11875.37, 51308.47, 48983.18, 41761.51, 12602.18, 30702.85, 73837.47, 48310.50, 18954.35, 15633.32, 28290.47, 44477.11, 9431.70, 4662.55, 37902.97, 15200.84, 0.00, 0.00, 0.00
198, 11875.37, 51308.47, 48983.18, 41761.51, 12602.18, 30702.85, 73837.47, 48310.50, 18940.53, 15661.80, 28332.02, 44592.60, 9468.60, 4703.12, 37973.11, 15262.73, 0.92, 0.26, -0.21
199, 11874.65, 51305.90, 48980.05, 41762.11, 12593.89, 30719.16, 73880.47, 48333.63, 18940.53, 15661.80, 28332.02, 44592.60, 9468.60, 4703.12, 37973.11, 15262.73, 0.00, 0.00, 0.00
200, 11874.65, 51305.90, 48980.05, 41762.11, 12593.89, 30719.16, 73880.47, 48333.63, 18956.00, 15648.99, 28299.19, 44485.96, 9438.11, 4676.30, 37908.49, 15210.25, 0.00, 0.00, 0.00
201, 11879.91, 51314.06, 48988.23, 41773.64, 12596.64, 30703.47, 73822.40, 48308.40, 18956.00, 15648.99, 28299.19, 44485.96, 9438.11, 4676.30, 37908.49, 15210.25, 0.00, 0.00, 0.00
202, 11879.91, 51314.06, 48988.23, 41773.64, 12596.64, 30703.47, 73822.40, 48308.40, 18948.11, 15664.17, 28328.42, 44569.94, 9475.49, 4712.78, 37966.14, 15260.12, 0.00, 0.00, 0.00
203, 11872.37, 51302.88, 48986.33, 41767.83, 12602.58, 30722.65, 73876.98, 48333.52, 18948.11, 15664.17, 28328.42, 44569.94, 9475.49, 4712.78, 37966.14, 15260.12, 0.00, 0.00, 0.00
204, 11872.37, 51302.88, 48986.33, 41767.83, 12602.58, 30722.65, 73876.98, 48333.52, 18949.25, 15648.05, 28307.77, 44498.59, 9449.31, 4681.30, 37915.71, 15229.70, 0.00, 0.00, 0.00
205, 11869.67, 51304.43, 48982.04, 41763.38, 12598.02, 30715.10, 73839.63, 48317.61, 18949.25, 15648.05, 28307.77, 44498.59, 9449.31, 4681.30, 37915.71, 15229.70, 0.00, 0.00, 0.00
206, 11869.67, 51304.43, 48982.04, 41763.38, 12598.02, 30715.10, 73839.63, 48317.61, 18947.93, 15655.76, 28332.51, 44571.23, 9482.37, 4707.63, 37966.05, 15270.06, 0.00, 0.00, 0.00
207, 11871.01, 51303.76, 48979.75, 41760.63, 12604.46, 30727.57, 73899.76, 48343.07, 18947.93, 15655.76, 28332.51, 44571.23, 9482.37, 4707.63, 37966.05, 15270.06, 0.00, 0.00, 0.00
208, 11871.01, 51303.76, 48979.75, 41760.63, 12604.46, 30727.57, 73899.76, 48343.07, 18958.39, 15645.08, 28308.44, 44509.61, 9455.82, 4682.27, 37920.45, 15236.25, 0.91, 0.26, -0.21
209, 11884.47, 51316.41, 48973.43, 41763.09, 12591.36, 30705.22, 73831.99, 48310.30, 18958.39, 15645.08, 28308.44, 44509.61, 9455.82, 4682.27, 37920.45, 15236.25, 0.00, 0.00, 0.00
210, 11884.47, 51316.41, 48973.43, 41763.09, 12591.36, 30705.22, 73831.99, 48310.30, 18953.96, 15663.23, 28334.23, 44563.90, 9486.04, 4711.03, 37959.59, 15269.77, 0.00, 0.00, 0.00
211, 11873.76, 51307.45, 48978.13, 41765.39, 12603.63, 30729.74, 73907.96, 48347.78, 18953.96, 15663.23, 28334.23, 44563.90, 9486.04, 4711.03, 37959.59, 15269.77, 0.00, 0.00, 0.00
212, 11873.76, 51307.45, 48978.13, 41765.39, 12603.63, 30729.74, 73907.96, 48347.78, 18959.67, 15651.67, 28320.20, 44527.56, 9464.85, 4684.99, 37925.25, 15249.01, 0.00, 0.00, 0.00
213, 11882.57, 51315.22, 48976.49, 41765.91, 12588.57, 30709.24, 73847.34, 48314.93, 18959.67, 15651.67, 28320.20, 44527.56, 9464.85, 4684.99, 37925.25, 15249.01, 0.00, 0.00, 0.00
214, 11882.57, 51315.22, 48976.49, 41765.91, 12588.57, 30709.24, 73847.34, 48314.93, 18954.50, 15665.40, 28342.79, 44562.43, 9486.79, 4701.22, 37952.07, 15271.23, 0.00, 0.00, 0.00
215, 11880.73, 51316.61, 48983.62, 41760.07, 12604.71, 30734.50, 73931.55, 48358.49, 18954.50, 15665.40, 28342.79, 44562.43, 9486.79, 4701.22, 37952.07, 15271.23, 0.00, 0.00, 0.00
216, 11880.73, 51316.61, 48983.62, 41760.07, 12604.71, 30734.50, 73931.55, 48358.49, 18970.57, 15652.59, 28329.07, 44541.73, 9473.90, 4678.06, 37932.52, 15257.01, 0.00, 0.00, 0.00
217, 11902.37, 51328.99, 48988.45, 41762.38, 12592.88, 30705.26, 73855.30, 48314.34, 18970.57, 15652.59, 28329.07, 44541.73, 9473.90, 4678.06, 37932.52, 15257.01, 0.00, 0.00, 0.00
218, 11902.37, 51328.99, 48988.45, 41762.38, 12592.88, 30705.26, 73855.30, 48314.34, 18976.27, 15660.19, 28336.24, 44524.47, 9502.44, 4692.88, 37940.21, 15259.51, 0.91, 0.25, -0.21
219, 11900.67, 51326.33, 49008.32, 41768.61, 12618.65, 30728.91, 73922.83, 48348.97, 18976.27, 15660.19, 28336.24, 44524.47, 9502.44, 4692.88, 37940.21, 15259.51, 0.00, 0.00, 0.00
220, 11900.67, 51326.33, 49008.32, 41768.61, 12618.65, 30728.91, 73922.83, 48348.97, 18979.98, 15663.88, 28339.91, 44544.43, 9492.00, 4693.73, 37945.01, 15274.71, 0.00, 0.00, 0.00
221, 11897.90, 51328.32, 48999.27, 41769.11, 12592.88, 30725.56, 73883.76, 48333.70, 18979.98, 15663.88, 28339.91, 44544.43, 9492.00, 4693.73, 37945.01, 15274.71, 0.00, 0.00, 0.00
222, 11897.90, 51328.32, 48999.27, 41769.11, 12592.88, 30725.56, 73883.76, 48333.70, 18967.27, 15670.20, 28342.21, 44531.78, 9489.66, 4700.28, 37941.32, 15280.93, 0.00, 0.00, 0.00
223, 11893.56, 51325.59, 48999.36, 41772.32, 12608.64, 30747.48, 73956.73, 48371.09, 18967.27, 15670.20, 28342.21, 44531.78, 9489.66, 4700.28, 37941.32, 15280.93, 0.00, 0.00, 0.00
224, 11893.56, 51325.59, 48999.36, 41772.32, 12608.64, 30747.48, 73956.73, 48371.09, 18974.28, 15668.48, 28335.02, 44565.82, 9475.78, 4698.52, 37943.23, 15287.21, 0.00, 0.00, 0.00
225, 11906.10, 51339.70, 48985.99, 41776.10, 12581.08, 30719.66, 73885.50, 48332.47, 18974.28, 15668.48, 28335.02, 44565.82, 9475.78, 4698.52, 37943.23, 15287.21, 0.00, 0.00, 0.00
226, 11906.10, 51339.70, 48985.99, 41776.10, 12581.08, 30719.66, 73885.50, 48332.47, 18971.94, 15669.87, 28321.65, 44504.42, 9461.65, 4698.16, 37917.18, 15256.72, 0.00, 0.00, 0.00
227, 11902.79, 51336.30, 48993.64, 41777.49, 12606.34, 30733.87, 73928.98, 48355.85, 18971.94, 15669.87, 28321.65, 44504.42, 9461.65, 4698.16, 37917.18, 15256.72, 0.00, 0.00, 0.00
228, 11902.79, 51336.30, 48993.64, 41777.49, 12606.34, 30733.87, 73928.98, 48355.85, 18979.71, 15669.62, 28328.71, 44558.13, 9450.81, 4697.13, 37940.25, 15268.21, 0.92, 0.25, -0.21
229, 11917.70, 51344.13, 48987.42, 41772.04, 12588.10, 30705.73, 73862.43, 48315.53, 18979.71, 15669.62, 28328.71, 44558.13, 9450.81, 4697.13, 37940.25, 15268.21, 0.00, 0.00, 0.00
230, 11917.70, 51344.13, 48987.42, 41772.04, 12588.10, 30705.73, 73862.43, 48315.53, 18978.75, 15665.22, 28319.28, 44480.84, 9423.63, 4692.37, 37905.20, 15235.71, 0.00, 0.00, 0.00
231, 11902.46, 51330.55, 49006.04, 41773.31, 12615.75, 30723.54, 73913.82, 48338.62, 18978.75, 15665.22, 28319.28, 44480.84, 9423.63, 4692.37, 37905.20, 15235.71, 0.00, 0.00, 0.00
232, 11902.46, 51330.55, 49006.04, 41773.31, 12615.75, 30723.54, 73913.82, 48338.62, 18973.17, 15665.73, 28342.62, 44572.64, 9404.43, 4702.23, 37952.37, 15274.49, 0.00, 0.00, 0.00
233, 11908.34, 51333.84, 48992.36, 41757.82, 12589.60, 30707.65, 73882.48, 48318.10, 18973.17, 15665.73, 28342.62, 44572.64, 9404.43, 4702.23, 37952.37, 15274.49, 0.00, 0.00, 0.00
234, 11908.34, 51333.84, 48992.36, 41757.82, 12589.60, 30707.65, 73882.48, 48318.10, 18970.80, 15657.29, 28326.01, 44484.66, 9364.15, 4686.31, 37909.83, 15236.02, 0.00, 0.00, 0.00
235, 11898.91, 51329.64, 49001.10, 41766.63, 12609.07, 30728.62, 73918.31, 48337.79, 18970.80, 15657.29, 28326.01, 44484.66, 9364.15, 4686.31, 37909.83, 15236.02, 0.00, 0.00, 0.00
236, 11898.91, 51329.64, 49001.10, 41766.63, 12609.07, 30728.62, 73918.31, 48337.79, 18967.67, 15665.02, 28340.09, 44570.23, 9354.50, 4701.51, 37955.61, 15278.49, 0.00, 0.00, 0.00
237, 11908.94, 51337.44, 48989.73, 41761.21, 12585.48, 30706.27, 73879.55, 48312.38, 18967.67, 15665.02, 28340.09, 44570.23, 9354.50, 4701.51, 37955.61, 15278.49, 0.00, 0.00, 0.00
238, 11908.94, 51337.44, 48989.73, 41761.21, 12585.48, 30706.27, 73879.55, 48312.38, 18967.13, 15661.60, 28314.74, 44461.26, 9321.21, 4687.41, 37901.27, 15233.76, 0.92, 0.25, -0.21
239, 11902.93, 51331.41, 49002.96, 41774.00, 12609.16, 30729.47, 73906.09, 48334.53, 18967.13, 15661.60, 28314.74, 44461.26, 9321.21, 4687.41, 37901.27, 15233.76, 0.00, 0.00, 0.00
240, 11902.93, 51331.41, 49002.96, 41774.00, 12609.16, 30729.47, 73906.09, 48334.53, 18957.21, 15678.34, 28353.68, 44579.75, 9333.19, 4715.37, 37969.00, 15297.67, 0.00, 0.00, 0.00
241, 11908.07, 51330.80, 48999.98, 41762.24, 12591.59, 30728.91, 73914.67, 48335.15, 18957.21, 15678.34, 28353.68, 44579.75, 9333.19, 4715.37, 37969.00, 15297.67, 0.00, 0.00, 0.00
242, 11908.07, 51330.80, 48999.98, 41762.24, 12591.59, 30728.91, 73914.67, 48335.15, 18964.18, 15662.72, 28329.96, 44478.27, 9297.83, 4687.23, 37908.42, 15248.72, 0.00, 0.00, 0.00
243, 11903.40, 51332.68, 49007.85, 41771.34, 12605.15, 30734.38, 73914.40, 48341.17, 18964.18, 15662.72, 28329.96, 44478.27, 9297.83, 4687.23, 37908.42, 15248.72, 0.00, 0.00, 0.00
244, 11903.40, 51332.68, 49007.85, 41771.34, 12605.15, 30734.38, 73914.40, 48341.17, 18962.73, 15672.37, 28356.88, 44579.73, 9316.14, 4709.00, 37966.79, 15299.30, 0.00, 0.00, 0.00
245, 11911.09, 51330.29, 48997.30, 41764.61, 12595.41, 30724.86, 73924.03, 48334.93, 18962.73, 15672.37, 28356.88, 44579.73, 9316.14, 4709.00, 37966.79, 15299.30, 0.00, 0.00, 0.00
246, 11911.09, 51330.29, 48997.30, 41764.61, 12595.41, 30724.86, 73924.03, 48334.93, 18970.84, 15651.70, 28321.16, 44465.13, 9283.84, 4673.77, 37903.33, 15245.23, 0.00, 0.00, 0.00
247, 11908.14, 51325.55, 49000.54, 41759.02, 12604.60, 30719.74, 73896.23, 48325.81, 18970.84, 15651.70, 28321.16, 44465.13, 9283.84, 4673.77, 37903.33, 15245.23, 0.00, 0.00, 0.00
248, 11908.14, 51325.55, 49000.54, 41759.02, 12604.60, 30719.74, 73896.23, 48325.81, 18958.26, 15664.86, 28347.91, 44567.84, 9306.22, 4702.27, 37965.11, 15294.18, 0.91, 0.26, -0.21
249, 11914.71, 51324.90, 48997.30, 41753.28, 12596.10, 30724.73, 73927.48, 48334.42, 18958.26, 15664.86, 28347.91, 44567.84, 9306.22, 4702.27, 37965.11, 15294.18, 0.00, 0.00, 0.00
250, 11914.71, 51324.90, 48997.30, 41753.28, 12596.10, 30724.73, 73927.48, 48334.42, 18970.30, 15653.66, 28316.22, 44473.24, 9280.71, 4676.01, 37907.62, 15246.57, 0.00, 0.00, 0.00
251, 11911.00, 51326.42, 49002.98, 41765.77, 12598.36, 30727.48, 73902.15, 48332.92, 18970.30, 15653.66, 28316.22, 44473.24, 9280.71, 4676.01, 37907.62, 15246.57, 0.00, 0.00, 0.00
252, 11911.00, 51326.42, 49002.98, 41765.77, 12598.36, 30727.48, 73902.15, 48332.92, 18964.38, 15670.70, 28349.23, 44568.57, 9310.13, 4710.12, 37967.36, 15296.88, 0.00, 0.00, 0.00
253, 11908.63, 51324.52, 49006.85, 41764.30, 12602.52, 30745.36, 73962.28, 48361.57, 18964.38, 15670.70, 28349.23, 44568.57, 9310.13, 4710.12, 37967.36, 15296.88, 0.00, 0.00, 0.00
254, 11908.63, 51324.52, 49006.85, 41764.30, 12602.52, 30745.36, 73962.28, 48361.57, 18968.40, 15658.47, 28330.05, 44508.34, 9279.28, 4685.73, 37916.02, 15260.56, 0.00, 0.00, 0.00
255, 11922.53, 51341.62, 49003.54, 41770.89, 12590.51, 30723.32, 73901.88, 48328.63, 18968.40, 15658.47, 28330.05, 44508.34, 9279.28, 4685.73, 37916.02, 15260.56, 0.00, 0.00, 0.00
0, 11922.53, 51341.62, 49003.54, 41770.89, 12590.51, 30723.32, 73901.88, 48328.63, 18977.35, 15676.19, 28349.59, 44560.95, 9309.25, 4716.55, 37955.65, 15289.00, 0.00, 0.00, 0.00
1, 11923.67, 51341.33, 49011.52, 41777.71, 12608.10, 30739.21, 73950.21, 48353.28, 18977.35, 15676.19, 28349.59, 44560.95, 9309.25, 4716.55, 37955.65, 15289.00, 0.00, 0.00, 0.00
2, 11923.67, 51341.33, 49011.52, 41777.71, 12608.10, 30739.21, 73950.21, 48353.28, 18974.95, 15667.37, 28335.22, 44511.22, 9289.65, 4699.77, 37922.32, 15267.29, 0.91, 0.26, -0.21
3, 11921.44, 51338.54, 49008.68, 41772.23, 12592.57, 30722.45, 73889.37, 48324.92, 18974.95, 15667.37, 28335.22, 44511.22, 9289.65, 4699.77, 37922.32, 15267.29, 0.00, 0.00, 0.00
4, 11921.44, 51338.54, 49008.68, 41772.23, 12592.57, 30722.45, 73889.37, 48324.92, 18968.34, 15673.31, 28345.19, 44539.31, 9311.49, 4717.60, 37953.73, 15291.88, 0.00, 0.00, 0.00
5, 11915.02, 51333.73, 49015.45, 41767.47, 12609.27, 30733.20, 73937.31, 48345.46, 18968.34, 15673.31, 28345.19, 44539.31, 9311.49, 4717.60, 37953.73, 15291.88, 0.00, 0.00, 0.00
6, 11915.02, 51333.73, 49015.45, 41767.47, 12609.27, 30733.20, 73937.31, 48345.46, 18970.04, 15664.19, 28330.43, 44515.13, 9295.60, 4699.32, 37931.76, 15276.90, 0.00, 0.00, 0.00
7, 11910.26, 51330.15, 49009.30, 41762.38, 12594.76, 30719.10, 73881.88, 48319.73, 18970.04, 15664.19, 28330.43, 44515.13, 9295.60, 4699.32, 37931.76, 15276.90, 0.00, 0.00, 0.00
8, 11910.26, 51330.15, 49009.30, 41762.38, 12594.76, 30719.10, 73881.88, 48319.73, 18968.52, 15674.32, 28344.27, 44540.30, 9313.37, 4717.89, 37950.11, 15290.49, 0.00, 0.00, 0.00
9, 11910.39, 51328.14, 49015.54, 41765.13, 12610.32, 30740.53, 73948.15, 48348.50, 18968.52, 15674.32, 28344.27, 44540.30, 9313.37, 4717.89, 37950.11, 15290.49, 0.00, 0.00, 0.00
10, 11910.39, 51328.14, 49015.54, 41765.13, 12610.32, 30740.53, 73948.15, 48348.50, 18972.38, 15667.37, 28334.08, 44536.50, 9301.14, 4698.09, 37933.14, 15271.27, 0.00, 0.00, 0.00
11, 11917.77, 51334.73, 49002.38, 41757.46, 12584.21, 30720.24, 73883.38, 48318.82, 18972.38, 15667.37, 28334.08, 44536.50, 9301.14, 4698.09, 37933.14, 15271.27, 0.00, 0.00, 0.00
12, 11917.77, 51334.73, 49002.38, 41757.46, 12584.21, 30720.24, 73883.38, 48318.82, 18969.05, 15675.77, 28347.60, 44541.04, 9324.25, 4710.63, 37944.57, 15279.65, 0.91, 0.25, -0.22
13, 11912.74, 51335.83, 49013.71, 41764.66, 12602.90, 30748.71, 73958.63, 48364.03, 18969.05, 15675.77, 28347.60, 44541.04, 9324.25, 4710.63, 37944.57, 15279.65, 0.00, 0.00, 0.00
14, 11912.74, 51335.83, 49013.71, 41764.66, 12602.90, 30748.71, 73958.63, 48364.03, 18971.22, 15668.01, 28343.96, 44561.93, 9322.20, 4698.87, 37943.65, 15279.58, 0.00, 0.00, 0.00
15, 11922.04, 51352.28, 49009.48, 41763.63, 12582.69, 30718.74, 73885.39, 48325.54, 18971.22, 15668.01, 28343.96, 44561.93, 9322.20, 4698.87, 37943.65, 15279.58, 0.00, 0.00, 0.00
16, 11922.04, 51352.28, 49009.48, 41763.63, 12582.69, 30718.74, 73885.39, 48325.54, 18966.19, 15671.30, 28342.35, 44520.52, 9337.98, 4699.52, 37932.52, 15260.76, 0.00, 0.00, 0.00
17, 11913.01, 51345.31, 49017.38, 41771.14, 12611.01, 30736.62, 73939.55, 48353.75, 18966.19, 15671.30, 28342.35, 44520.52, 9337.98, 4699.52, 37932.52, 15260.76, 0.00, 0.00, 0.00
18, 11913.01, 51345.31, 49017.38, 41771.14, 12611.01, 30736.62, 73939.55, 48353.75, 18968.16, 15668.97, 28346.21, 44570.79, 9341.13, 4696.28, 37951.79, 15273.44, 0.00, 0.00, 0.00
19, 11925.17, 51351.75, 49000.81, 41760.23, 12587.63, 30709.06, 73873.01, 48318.19, 18968.16, 15668.97, 28346.21, 44570.79, 9341.13, 4696.28, 37951.79, 15273.44, 0.00, 0.00, 0.00
20, 11925.17, 51351.75, 49000.81, 41760.23, 12587.63, 30709.06, 73873.01, 48318.19, 18973.01, 15669.65, 28333.00, 44502.75, 9344.28, 4696.19, 37923.80, 15241.50, 0.00, 0.00, 0.00
21, 11908.05, 51332.23, 49008.54, 41768.86, 12618.39, 30737.04, 73930.16, 48352.88, 18973.01, 15669.65, 28333.00, 44502.75, 9344.28, 4696.19, 37923.80, 15241.50, 0.00, 0.00, 0.00
22, 11908.05, 51332.23, 49008.54, 41768.86, 12618.39, 30737.04, 73930.16, 48352.88, 18968.05, 15672.19, 28354.26, 44591.62, 9354.25, 4706.85, 37964.97, 15276.81, 0.92, 0.25, -0.22
23, 11918.96, 51339.25, 48995.98, 41769.31, 12590.76, 30719.99, 73883.63, 48328.61, 18968.05, 15672.19, 28354.26, 44591.62, 9354.25, 4706.85, 37964.97, 15276.81, 0.00, 0.00, 0.00
24, 11918.96, 51339.25, 48995.98, 41769.31, 12590.76, 30719.99, 73883.63, 48328.61, 18968.96, 15662.63, 28340.16, 44513.72, 9344.53, 4696.41, 37927.60, 15240.54, 0.00, 0.00, 0.00
25, 11900.72, 51323.49, 49004.28, 41774.31, 12614.23, 30744.11, 73928.17, 48357.57, 18968.96, 15662.63, 28340.16, 44513.72, 9344.53, 4696.41, 37927.60, 15240.54, 0.00, 0.00, 0.00
26, 11900.72, 51323.49, 49004.28, 41774.31, 12614.23, 30744.11, 73928.17, 48357.57, 18970.95, 15664.46, 28355.40, 44599.84, 9355.03, 4706.99, 37970.70, 15279.54, 0.00, 0.00, 0.00
27, 11916.85, 51340.61, 48993.84, 41770.56, 12589.24, 30719.37, 73879.42, 48330.35, 18970.95, 15664.46, 28355.40, 44599.84, 9355.03, 4706.99, 37970.70, 15279.54, 0.00, 0.00, 0.00
28, 11916.85, 51340.61, 48993.84, 41770.56, 12589.24, 30719.37, 73879.42, 48330.35, 18972.07, 15658.76, 28329.52, 44497.27, 9341.55, 4689.19, 37917.90, 15228.44, 0.00, 0.00, 0.00
29, 11903.44, 51332.99, 49002.49, 41775.79, 12610.88, 30736.11, 73907.02, 48348.18, 18972.07, 15658.76, 28329.52, 44497.27, 9341.55, 4689.19, 37917.90, 15228.44, 0.00, 0.00, 0.00
30, 11903.44, 51332.99, 49002.49, 41775.79, 12610.88, 30736.11, 73907.02, 48348.18, 18968.47, 15669.53, 28361.44, 44608.56, 9363.77, 4711.88, 37976.17, 15277.26, 0.00, 0.00, 0.00
31, 11915.83, 51336.17, 48994.98, 41766.02, 12594.98, 30729.36, 73898.15, 48344.72, 18968.47, 15669.53, 28361.44, 44608.56, 9363.77, 4711.88, 37976.17, 15277.26, 0.00, 0.00, 0.00
32, 11915.83, 51336.17, 48994.98, 41766.02, 12594.98, 30729.36, 73898.15, 48344.72, 18983.04, 15661.87, 28338.59, 44507.84, 9348.24, 4693.17, 37922.55, 15232.76, 0.92, 0.25, -0.22
33, 11923.83, 51345.33, 49010.04, 41780.04, 12615.82, 30735.46, 73901.55, 48349.91, 18983.04, 15661.87, 28338.59, 44507.84, 9348.24, 4693.17, 37922.55, 15232.76, 0.00, 0.00, 0.00
34, 11923.83, 51345.33, 49010.04, 41780.04, 12615.82, 30735.46, 73901.55, 48349.91, 18987.70, 15674.27, 28368.23, 44607.20, 9375.57, 4721.69, 37980.84, 15285.67, 0.00, 0.00, 0.00
35, 11935.23, 51357.98, 49009.26, 41783.32, 12605.02, 30731.39, 73896.66, 48347.63, 18987.70, 15674.27, 28368.23, 44607.20, 9375.57, 4721.69, 37980.84, 15285.67, 0.00, 0.00, 0.00
36, 11935.23, 51357.98, 49009.26, 41783.32, 12605.02, 30731.39, 73896.66, 48347.63, 18991.49, 15666.36, 28344.87, 44499.15, 9357.29, 4704.66, 37925.30, 15246.10, 0.00, 0.00, 0.00
37, 11912.99, 51339.03, 49013.80, 41786.61, 12614.94, 30742.86, 73897.14, 48348.23, 18991.49, 15666.36, 28344.87, 44499.15, 9357.29, 4704.66, 37925.30, 15246.10, 0.00, 0.00, 0.00
38, 11912.99, 51339.03, 49013.80, 41786.61, 12614.94, 30742.86, 73897.14, 48348.23, 18974.57, 15675.66, 28373.75, 44612.83, 9379.91, 4726.66, 37984.62, 15303.12, 0.00, 0.00, 0.00
39, 11915.87, 51341.57, 48999.96, 41771.45, 12600.24, 30745.79, 73926.85, 48357.13, 18974.57, 15675.66, 28373.75, 44612.83, 9379.91, 4726.66, 37984.62, 15303.12, 0.00, 0.00, 0.00
40, 11915.87, 51341.57, 48999.96, 41771.45, 12600.24, 30745.79, 73926.85, 48357.13, 18988.54, 15658.16, 28342.93, 44506.86, 9352.48, 4693.51, 37920.31, 15253.34, 0.00, 0.00, 0.00
41, 11918.60, 51348.88, 48991.16, 41765.75, 12602.74, 30733.49, 73892.96, 48339.40, 18988.54, 15658.16, 28342.93, 44506.86, 9352.48, 4693.51, 37920.31, 15253.34, 0.00, 0.00, 0.00
42, 11918.60, 51348.88, 48991.16, 41765.75, 12602.74, 30733.49, 73892.96, 48339.40, 18986.78, 15669.69, 28364.21, 44592.06, 9383.24, 4718.34, 37968.50, 15293.47, 0.92, 0.25, -0.22
43, 11917.15, 51347.59, 48982.10, 41751.94, 12602.94, 30737.98, 73924.03, 48349.95, 18986.78, 15669.69, 28364.21, 44592.06, 9383.24, 4718.34, 37968.50, 15293.47, 0.00, 0.00, 0.00
44, 11917.15, 51347.59, 48982.10, 41751.94, 12602.94, 30737.98, 73924.03, 48349.95, 18993.75, 15651.12, 28333.88, 44499.77, 9360.49, 4682.89, 37907.84, 15242.32, 0.00, 0.00, 0.00
45, 11913.23, 51338.38, 48984.18, 41751.87, 12602.25, 30724.15, 73879.93, 48330.91, 18993.75, 15651.12, 28333.88, 44499.77, 9360.49, 4682.89, 37907.84, 15242.32, 0.00, 0.00, 0.00
46, 11913.23, 51338.38, 48984.18, 41751.87, 12602.25, 30724.15, 73879.93, 48330.91, 18980.07, 15665.73, 28361.86, 44580.46, 9392.99, 4708.06, 37963.09, 15285.96, 0.00, 0.00, 0.00
47, 11909.17, 51331.00, 48990.55, 41751.07, 12608.73, 30737.83, 73937.45, 48360.50, 18980.07, 15665.73, 28361.86, 44580.46, 9392.99, 4708.06, 37963.09, 15285.96, 0.00, 0.00, 0.00
48, 11909.17, 51331.00, 48990.55, 41751.07, 12608.73, 30737.83, 73937.45, 48360.50, 18978.33, 15652.03, 28337.67, 44511.55, 9371.48, 4679.90, 37919.00, 15254.24, 0.00, 0.00, 0.00
49, 11914.93, 51342.40, 48991.78, 41759.36, 12597.20, 30715.95, 73869.38, 48326.55, 18978.33, 15652.03, 28337.67, 44511.55, 9371.48, 4679.90, 37919.00, 15254.24, 0.00, 0.00, 0.00
50, 11914.93, 51342.40, 48991.78, 41759.36, 12597.20, 30715.95, 73869.38, 48326.55, 18978.31, 15664.12, 28352.29, 44553.42, 9404.50, 4711.93, 37960.04, 15287.27, 0.00, 0.00, 0.00
51, 11909.86, 51342.16, 49000.90, 41773.17, 12612.46, 30737.80, 73929.27, 48357.77, 18978.31, 15664.12, 28352.29, 44553.42, 9404.50, 4711.93, 37960.04, 15287.27, 0.00, 0.00, 0.00
52, 11909.86, 51342.16, 49000.90, 41773.17, 12612.46, 30737.80, 73929.27, 48357.77, 18979.58, 15657.20, 28336.47, 44506.70, 9384.71, 4692.37, 37924.52, 15265.88, 0.91, 0.25, -0.21
53, 11913.28, 51350.85, 48993.95, 41774.87, 12597.82, 30718.18, 73858.34, 48320.71, 18979.58, 15657.20, 28336.47, 44506.70, 9384.71, 4692.37, 37924.52, 15265.88, 0.00, 0.00, 0.00
54, 11913.28, 51350.85, 48993.95, 41774.87, 12597.82, 30718.18, 73858.34, 48320.71, 18976.16, 15669.89, 28354.71, 44535.40, 9418.18, 4716.06, 37953.82, 15291.48, 0.00, 0.00, 0.00
55, 11901.81, 51336.30, 48999.49, 41769.11, 12612.44, 30743.39, 73929.73, 48355.09, 18976.16, 15669.89, 28354.71, 44535.40, 9418.18, 4716.06, 37953.82, 15291.48, 0.00, 0.00, 0.00
56, 11901.81, 51336.30, 48999.49, 41769.11, 12612.44, 30743.39, 73929.73, 48355.09, 18973.48, 15659.63, 28345.23, 44519.24, 9399.71, 4692.95, 37929.52, 15276.05, 0.00, 0.00, 0.00
57, 11906.62, 51336.48, 48987.07, 41760.88, 12591.97, 30721.60, 73858.16, 48322.44, 18973.48, 15659.63, 28345.23, 44519.24, 9399.71, 4692.95, 37929.52, 15276.05, 0.00, 0.00, 0.00
58, 11906.62, 51336.48, 48987.07, 41760.88, 12591.97, 30721.60, 73858.16, 48322.44, 18973.75, 15663.05, 28354.75, 44522.28, 9420.46, 4704.15, 37939.69, 15281.87, 0.00, 0.00, 0.00
59, 11899.80, 51327.02, 48992.18, 41761.64, 12615.17, 30741.31, 73910.09, 48352.95, 18973.75, 15663.05, 28354.75, 44522.28, 9420.46, 4704.15, 37939.69, 15281.87, 0.00, 0.00, 0.00
60, 11899.80, 51327.02, 48992.18, 41761.64, 12615.17, 30741.31, 73910.09, 48352.95, 18975.92, 15654.87, 28346.57, 44525.50, 9409.82, 4693.20, 37929.90, 15274.18, 0.00, 0.00, 0.00
61, 11906.89, 51338.63, 48982.59, 41760.10, 12590.40, 30716.75, 73827.48, 48315.98, 18975.92, 15654.87, 28346.57, 44525.50, 9409.82, 4693.20, 37929.90, 15274.18, 0.91, 0.25, -0.21
62, 11906.89, 51338.63, 48982.59, 41760.10, 12590.40, 30716.75, 73827.48, 48315.98, 18973.66, 15663.63, 28343.89, 44501.47, 9424.52, 4705.27, 37927.31, 15265.44, 0.00, 0.00, 0.00
63, 11907.67, 51338.63, 48998.33, 41772.21, 12615.50, 30740.91, 73882.95, 48346.44, 18973.66, 15663.63, 28343.89, 44501.47, 9424.52, 4705.27, 37927.31, 15265.44, 0.00, 0.00, 0.00
64, 11907.67, 51338.63, 48998.33, 41772.21, 12615.50, 30740.91, 73882.95, 48346.44, 18975.22, 15662.87, 28348.65, 44538.24, 9424.81, 4704.80, 37940.27, 15270.51, 0.00, 0.00, 0.00
65, 11909.75, 51337.89, 48987.31, 41764.32, 12590.63, 30723.68, 73824.39, 48317.50, 18975.22, 15662.87, 28348.65, 44538.24, 9424.81, 4704.80, 37940.27, 15270.51, 0.00, 0.00, 0.00
66, 11909.75, 51337.89, 48987.31, 41764.32, 12590.63, 30723.68, 73824.39, 48317.50, 18985.59, 15662.76, 28349.07, 44500.80, 9433.15, 4701.49, 37925.43, 15249.68, 0.00, 0.00, 0.00
67, 11913.12, 51343.23, 49005.01, 41773.89, 12618.07, 30746.07, 73873.59, 48343.40, 18985.59, 15662.76, 28349.07, 44500.80, 9433.15, 4701.49, 37925.43, 15249.68, 0.00, 0.00, 0.00
68, 11913.12, 51343.23, 49005.01, 41773.89, 12618.07, 30746.07, 73873.59, 48343.40, 18987.34, 15665.06, 28357.54, 44558.25, 9444.21, 4708.17, 37949.91, 15271.00, 0.00, 0.00, 0.00
69, 11922.00, 51352.71, 48998.20, 41772.14, 12594.76, 30728.98, 73810.29, 48314.77, 18987.34, 15665.06, 28357.54, 44558.25, 9444.21, 4708.17, 37949.91, 15271.00, 0.00, 0.00, 0.00
70, 11922.00, 51352.71, 48998.20, 41772.14, 12594.76, 30728.98, 73810.29, 48314.77, 18982.49, 15660.73, 28347.06, 44491.84, 9445.13, 4702.16, 37920.34, 15244.13, 0.00, 0.00, 0.00
71, 11909.68, 51344.26, 49007.65, 41778.98, 12619.84, 30754.75, 73861.63, 48344.21, 18982.49, 15660.73, 28347.06, 44491.84, 9445.13, 4702.16, 37920.34, 15244.13, 0.91, 0.25, -0.21
72, 11909.68, 51344.26, 49007.65, 41778.98, 12619.84, 30754.75, 73861.63, 48344.21, 18983.94, 15669.60, 28368.83, 44577.04, 9458.70, 4710.47, 37963.36, 15286.31, 0.00, 0.00, 0.00
73, 11930.06, 51363.30, 49003.32, 41775.79, 12599.39, 30735.73, 73810.20, 48322.88, 18983.94, 15669.60, 28368.83, 44577.04, 9458.70, 4710.47, 37963.36, 15286.31, 0.00, 0.00, 0.00
74, 11930.06, 51363.30, 49003.32, 41775.79, 12599.39, 30735.73, 73810.20, 48322.88, 19005.08, 15669.35, 28348.58, 44481.27, 9450.90, 4697.69, 37915.66, 15248.02, 0.00, 0.00, 0.00
75, 11930.27, 51365.56, 49013.24, 41786.47, 12622.99, 30741.11, 73819.63, 48330.95, 19005.08, 15669.35, 28348.58, 44481.27, 9450.90, 4697.69, 37915.66, 15248.02, 0.00, 0.00, 0.00
76, 11930.27, 51365.56, 49013.24, 41786.47, 12622.99, 30741.11, 73819.63, 48330.95, 18996.79, 15679.21, 28368.45, 44575.32, 9472.07, 4716.42, 37961.64, 15291.05, 0.00, 0.00, 0.00
77, 11912.36, 51353.64, 48991.34, 41764.59, 12595.83, 30729.09, 73798.75, 48314.52, 18996.79, 15679.21, 28368.45, 44575.32, 9472.07, 4716.42, 37961.64, 15291.05, 0.00, 0.00, 0.00
78, 11912.36, 51353.64, 48991.34, 41764.59, 12595.83, 30729.09, 73798.75, 48314.52, 18977.57, 15659.83, 28341.12, 44485.29, 9449.51, 4687.16, 37908.18, 15248.74, 0.00, 0.00, 0.00
79, 11894.53, 51340.23, 48993.23, 41764.79, 12605.02, 30742.37, 73826.91, 48329.39, 18977.57, 15659.83, 28341.12, 44485.29, 9449.51, 4687.16, 37908.18, 15248.74, 0.00, 0.00, 0.00
80, 11894.53, 51340.23, 48993.23, 41764.79, 12605.02, 30742.37, 73826.91, 48329.39, 18971.67, 15666.69, 28363.00, 44590.41, 9470.88, 4705.85, 37964.86, 15296.28, 0.00, 0.00, 0.00
81, 11895.64, 51342.71, 48981.79, 41766.54, 12586.92, 30741.65, 73831.88, 48329.88, 18971.67, 15666.69, 28363.00, 44590.41, 9470.88, 4705.85, 37964.86, 15296.28, 0.92, 0.25, -0.21
82, 11895.64, 51342.71, 48981.79, 41766.54, 12586.92, 30741.65, 73831.88, 48329.88, 18980.61, 15656.14, 28333.49, 44483.32, 9450.29, 4680.79, 37906.46, 15243.98, 0.00, 0.00, 0.00
83, 11908.52, 51349.29, 48994.80, 41780.66, 12600.95, 30731.99, 73807.83, 48324.27, 18980.61, 15656.14, 28333.49, 44483.32, 9450.29, 4680.79, 37906.46, 15243.98, 0.00, 0.00, 0.00
84, 11908.52, 51349.29, 48994.80, 41780.66, 12600.95, 30731.99, 73807.83, 48324.27, 18991.43, 15672.71, 28361.01, 44575.48, 9490.21, 4708.89, 37960.55, 15290.29, 0.00, 0.00, 0.00
85, 11907.82, 51347.25, 48997.39, 41779.59, 12595.36, 30729.56, 73811.83, 48323.40, 18991.43, 15672.71, 28361.01, 44575.48, 9490.21, 4708.89, 37960.55, 15290.29, 0.00, 0.00, 0.00
86, 11907.82, 51347.25, 48997.39, 41779.59, 12595.36, 30729.56, 73811.83, 48323.40, 18984.36, 15656.03, 28338.41, 44486.72, 9462.79, 4683.56, 37905.29, 15254.44, 0.00, 0.00, 0.00
87, 11904.58, 51345.09, 49000.12, 41776.75, 12602.05, 30733.16, 73803.83, 48326.57, 18984.36, 15656.03, 28338.41, 44486.72, 9462.79, 4683.56, 37905.29, 15254.44, 0.00, 0.00, 0.00
88, 11904.58, 51345.09, 49000.12, 41776.75, 12602.05, 30733.16, 73803.83, 48326.57, 18990.96, 15673.76, 28368.32, 44580.17, 9497.23, 4711.93, 37964.64, 15306.18, 0.00, 0.00, 0.00
89, 11909.41, 51349.20, 48998.69, 41782.79, 12601.06, 30736.17, 73821.98, 48333.57, 18990.96, 15673.76, 28368.32, 44580.17, 9497.23, 4711.93, 37964.64, 15306.18, 0.00, 0.00, 0.00
90, 11909.41, 51349.20, 48998.69, 41782.79, 12601.06, 30736.17, 73821.98, 48333.57, 18986.04, 15663.68, 28346.86, 44493.14, 9473.81, 4690.92, 37910.08, 15262.08, 0.00, 0.00, 0.00
91, 11900.60, 51345.93, 48996.63, 41787.99, 12599.97, 30739.64, 73805.19, 48332.79, 18986.04, 15663.68, 28346.86, 44493.14, 9473.81, 4690.92, 37910.08, 15262.08, 0.92, 0.25, -0.21
92, 11900.60, 51345.93, 48996.63, 41787.99, 12599.97, 30739.64, 73805.19, 48332.79, 18986.15, 15673.09, 28370.89, 44575.93, 9500.85, 4718.34, 37962.09, 15303.75, 0.00, 0.00, 0.00
93, 11900.52, 51348.77, 48997.14, 41784.55, 12596.17, 30739.55, 73834.63, 48339.16, 18986.15, 15673.09, 28370.89, 44575.93, 9500.85, 4718.34, 37962.09, 15303.75, 0.00, 0.00, 0.00
94, 11900.52, 51348.77, 48997.14, 41784.55, 12596.17, 30739.55, 73834.63, 48339.16, 18988.30, 15660.01, 28347.40, 44494.75, 9475.55, 4691.52, 37907.62, 15261.41, 0.00, 0.00, 0.00
95, 11898.66, 51341.98, 49002.89, 41785.45, 12598.52, 30740.98, 73807.72, 48335.38, 18988.30, 15660.01, 28347.40, 44494.75, 9475.55, 4691.52, 37907.62, 15261.41, 0.00, 0.00, 0.00
96, 11898.66, 51341.98, 49002.89, 41785.45, 12598.52, 30740.98, 73807.72, 48335.38, 18984.45, 15672.91, 28373.06, 44573.02, 9503.87, 4713.54, 37954.73, 15304.78, 0.00, 0.00, 0.00
97, 11901.97, 51347.25, 49005.95, 41773.53, 12598.81, 30749.58, 73853.70, 48353.68, 18984.45, 15672.91, 28373.06, 44573.02, 9503.87, 4713.54, 37954.73, 15304.78, 0.00, 0.00, 0.00
98, 11901.97, 51347.25, 49005.95, 41773.53, 12598.81, 30749.58, 73853.70, 48353.68, 18990.06, 15659.92, 28346.57, 44504.11, 9479.33, 4684.97, 37903.64, 15266.17, 0.00, 0.00, 0.00
99, 11905.39, 51354.18, 49003.20, 41774.80, 12593.69, 30733.87, 73795.02, 48327.42, 18990.06, 15659.92, 28346.57, 44504.11, 9479.33, 4684.97, 37903.64, 15266.17, 0.00, 0.00, 0.00
100, 11905.39, 51354.18, 49003.20, 41774.80, 12593.69, 30733.87, 73795.02, 48327.42, 18990.69, 15675.34, 28364.59, 44546.89, 9513.86, 4709.62, 37942.98, 15293.62, 0.00, 0.00, 0.00
101, 11900.31, 51342.96, 49006.55, 41776.44, 12610.67, 30748.49, 73851.86, 48351.05, 18990.69, 15675.34, 28364.59, 44546.89, 9513.86, 4709.62, 37942.98, 15293.62, 0.92, 0.25, -0.22
102, 11900.31, 51342.96, 49006.55, 41776.44, 12610.67, 30748.49, 73851.86, 48351.05, 18994.67, 15661.04, 28342.90, 44493.70, 9493.68, 4690.56, 37910.55, 15269.44, 0.00, 0.00, 0.00
103, 11899.73, 51347.12, 48999.67, 41777.42, 12597.33, 30726.52, 73778.84, 48313.29, 18994.67, 15661.04, 28342.90, 44493.70, 9493.68, 4690.56, 37910.55, 15269.44, 0.00, 0.00, 0.00
104, 11899.73, 51347.12, 48999.67, 41777.42, 12597.33, 30726.52, 73778.84, 48313.29, 18981.68, 15668.21, 28357.46, 44518.93, 9515.54, 4712.91, 37941.97, 15294.14, 0.00, 0.00, 0.00
105, 11885.92, 51330.94, 49007.02, 41777.42, 12614.41, 30755.80, 73860.76, 48355.70, 18981.68, 15668.21, 28357.46, 44518.93, 9515.54, 4712.91, 37941.97, 15294.14, 0.00, 0.00, 0.00
106, 11885.92, 51330.94, 49007.02, 41777.42, 12614.41, 30755.80, 73860.76, 48355.70, 18989.53, 15656.88, 28352.31, 44512.76, 9495.27, 4696.93, 37927.29, 15291.36, 0.00, 0.00, 0.00
107, 11894.68, 51336.73, 48997.95, 41775.01, 12588.10, 30736.06, 73798.44, 48323.31, 18989.53, 15656.88, 28352.31, 44512.76, 9495.27, 4696.93, 37927.29, 15291.36, 0.00, 0.00, 0.00
108, 11894.68, 51336.73, 48997.95, 41775.01, 12588.10, 30736.06, 73798.44, 48323.31, 18985.62, 15663.30, 28364.61, 44519.67, 9495.85, 4712.69, 37937.73, 15302.99, 0.00, 0.00, 0.00
109, 11888.04, 51336.48, 49004.25, 41776.62, 12610.29, 30758.68, 73865.65, 48362.29, 18985.62, 15663.30, 28364.61, 44519.67, 9495.85, 4712.69, 37937.73, 15302.99, 0.00, 0.00, 0.00
110, 11888.04, 51336.48, 49004.25, 41776.62, 12610.29, 30758.68, 73865.65, 48362.29, 18991.61, 15653.26, 28353.16, 44519.33, 9458.83, 4696.06, 37923.55, 15289.11, 0.00, 0.00, 0.00
111, 11900.69, 51346.20, 48993.88, 41768.35, 12586.67, 30723.57, 73775.91, 48312.38, 18991.61, 15653.26, 28353.16, 44519.33, 9458.83, 4696.06, 37923.55, 15289.11, 0.91, 0.26, -0.21
112, 11900.69, 51346.20, 48993.88, 41768.35, 12586.67, 30723.57, 73775.91, 48312.38, 18979.22, 15660.64, 28349.05, 44482.05, 9436.59, 4703.86, 37919.98, 15271.67, 0.00, 0.00, 0.00
113, 11883.10, 51330.13, 48999.78, 41767.23, 12615.73, 30753.47, 73853.94, 48350.89, 18979.22, 15660.64, 28349.05, 44482.05, 9436.59, 4703.86, 37919.98, 15271.67, 0.00, 0.00, 0.00
114, 11883.10, 51330.13, 48999.78, 41767.23, 12615.73, 30753.47, 73853.94, 48350.89, 18978.04, 15664.28, 28358.82, 44532.70, 9407.71, 4703.48, 37939.65, 15290.87, 0.00, 0.00, 0.00
115, 11896.27, 51336.86, 48991.69, 41766.20, 12591.43, 30737.92, 73806.98, 48324.36, 18978.04, 15664.28, 28358.82, 44532.70, 9407.71, 4703.48, 37939.65, 15290.87, 0.00, 0.00, 0.00
116, 11896.27, 51336.86, 48991.69, 41766.20, 12591.43, 30737.92, 73806.98, 48324.36, 18982.06, 15665.60, 28352.09, 44481.27, 9383.24, 4705.62, 37915.40, 15272.41, 0.00, 0.00, 0.00
117, 11898.26, 51347.34, 49005.97, 41779.77, 12616.91, 30755.98, 73858.59, 48351.34, 18982.06, 15665.60, 28352.09, 44481.27, 9383.24, 4705.62, 37915.40, 15272.41, 0.00, 0.00, 0.00
118, 11898.26, 51347.34, 49005.97, 41779.77, 12616.91, 30755.98, 73858.59, 48351.34, 18980.86, 15669.06, 28364.90, 44540.70, 9363.26, 4713.00, 37941.88, 15295.92, 0.00, 0.00, 0.00
119, 11907.76, 51357.56, 48996.52, 41776.44, 12588.95, 30729.00, 73800.41, 48318.88, 18980.86, 15669.06, 28364.90, 44540.70, 9363.26, 4713.00, 37941.88, 15295.92, 0.00, 0.00, 0.00
120, 11907.76, 51357.56, 48996.52, 41776.44, 12588.95, 30729.00, 73800.41, 48318.88, 18979.63, 15663.97, 28345.95, 44454.45, 9335.47, 4704.10, 37900.24, 15262.87, 0.00, 0.00, 0.00
121, 11896.38, 51348.06, 49011.83, 41780.80, 12616.00, 30753.36, 73850.83, 48346.15, 18979.63, 15663.97, 28345.95, 44454.45, 9335.47, 4704.10, 37900.24, 15262.87, 0.92, 0.25, -0.22
122, 11896.38, 51348.06, 49011.83, 41780.80, 12616.00, 30753.36, 73850.83, 48346.15, 18967.44, 15671.52, 28366.40, 44546.11, 9330.91, 4714.79, 37947.16, 15307.26, 0.00, 0.00, 0.00
123, 11899.22, 51345.29, 48991.07, 41763.14, 12589.80, 30738.63, 73825.09, 48329.92, 18967.44, 15671.52, 28366.40, 44546.11, 9330.91, 4714.79, 37947.16, 15307.26, 0.00, 0.00, 0.00
124, 11899.22, 51345.29, 48991.07, 41763.14, 12589.80, 30738.63, 73825.09, 48329.92, 18975.74, 15658.76, 28339.04, 44446.42, 9302.44, 4692.64, 37899.50, 15264.72, 0.00, 0.00, 0.00
125, 11906.82, 51352.95, 49005.93, 41776.53, 12617.09, 30746.46, 73842.52, 48343.47, 18975.74, 15658.76, 28339.04, 44446.42, 9302.44, 4692.64, 37899.50, 15264.72, 0.00, 0.00, 0.00
126, 11906.82, 51352.95, 49005.93, 41776.53, 12617.09, 30746.46, 73842.52, 48343.47, 18983.07, 15670.36, 28358.39, 44523.20, 9316.45, 4712.55, 37949.75, 15297.89, 0.00, 0.00, 0.00
127, 11907.04, 51351.39, 49004.07, 41775.75, 12602.20, 30734.88, 73818.69, 48326.57, 18983.07, 15670.36, 28358.39, 44523.20, 9316.45, 4712.55, 37949.75, 15297.89, 0.00, 0.00, 0.00
128, 11907.04, 51351.39, 49004.07, 41775.75, 12602.20, 30734.88, 73818.69, 48326.57, 18982.02, 15664.06, 28340.69, 44426.48, 9291.69, 4697.82, 37899.95, 15249.50, 0.00, 0.00, 0.00
129, 11904.87, 51355.79, 49009.66, 41776.19, 12619.01, 30743.50, 73832.15, 48337.52, 18982.02, 15664.06, 28340.69, 44426.48, 9291.69, 4697.82, 37899.95, 15249.50, 0.00, 0.00, 0.00
130, 11904.87, 51355.79, 49009.66, 41776.19, 12619.01, 30743.50, 73832.15, 48337.52, 18972.25, 15679.48, 28374.58, 44542.22, 9308.21, 4724.15, 37961.66, 15297.53, 0.00, 0.00, 0.00
131, 11898.50, 51346.00, 48993.91, 41765.75, 12598.02, 30748.22, 73843.48, 48345.50, 18972.25, 15679.48, 28374.58, 44542.22, 9308.21, 4724.15, 37961.66, 15297.53, 0.91, 0.25, -0.22
132, 11898.50, 51346.00, 48993.91, 41765.75, 12598.02, 30748.22, 73843.48, 48345.50, 18978.73, 15663.92, 28343.66, 44441.30, 9277.27, 4698.87, 37902.03, 15250.01, 0.00, 0.00, 0.00
133, 11893.36, 51344.35, 49001.35, 41771.74, 12609.07, 30751.98, 73836.41, 48350.64, 18978.73, 15663.92, 28343.66, 44441.30, 9277.27, 4698.87, 37902.03, 15250.01, 0.00, 0.00, 0.00
134, 11893.36, 51344.35, 49001.35, 41771.74, 12609.07, 30751.98, 73836.41, 48350.64, 18954.03, 15677.67, 28372.39, 44559.74, 9295.89, 4723.55, 37963.70, 15305.09, 0.00, 0.00, 0.00
135, 11889.27, 51336.68, 48982.13, 41755.85, 12593.67, 30754.37, 73866.77, 48362.63, 18954.03, 15677.67, 28372.39, 44559.74, 9295.89, 4723.55, 37963.70, 15305.09, 0.00, 0.00, 0.00
136, 11889.27, 51336.68, 48982.13, 41755.85, 12593.67, 30754.37, 73866.77, 48362.63, 18965.57, 15658.58, 28341.77, 44460.77, 9267.55, 4692.10, 37902.84, 15256.43, 0.00, 0.00, 0.00
137, 11889.63, 51333.93, 48987.58, 41761.93, 12601.06, 30747.06, 73846.79, 48352.43, 18965.57, 15658.58, 28341.77, 44460.77, 9267.55, 4692.10, 37902.84, 15256.43, 0.00, 0.00, 0.00
138, 11889.63, 51333.93, 48987.58, 41761.93, 12601.06, 30747.06, 73846.79, 48352.43, 18964.65, 15671.12, 28367.60, 44556.43, 9297.23, 4719.95, 37962.43, 15304.60, 0.00, 0.00, 0.00
139, 11899.17, 51342.16, 48985.55, 41757.64, 12600.88, 30748.51, 73877.70, 48363.29, 18964.65, 15671.12, 28367.60, 44556.43, 9297.23, 4719.95, 37962.43, 15304.60, 0.00, 0.00, 0.00
140, 11899.17, 51342.16, 48985.55, 41757.64, 12600.88, 30748.51, 73877.70, 48363.29, 18973.68, 15657.24, 28339.35, 44459.38, 9271.50, 4690.85, 37904.63, 15254.89, 0.00, 0.00, 0.00
141, 11901.52, 51345.93, 48993.61, 41759.07, 12601.06, 30735.99, 73834.91, 48342.29, 18973.68, 15657.24, 28339.35, 44459.38, 9271.50, 4690.85, 37904.63, 15254.89, 0.91, 0.25, -0.22
142, 11901.52, 51345.93, 48993.61, 41759.07, 12601.06, 30735.99, 73834.91, 48342.29, 18961.10, 15671.03, 28374.82, 44554.56, 9299.85, 4723.19, 37968.30, 15302.07, 0.00, 0.00, 0.00
143, 11898.26, 51340.50, 48999.74, 41750.13, 12600.26, 30745.99, 73886.39, 48372.23, 18961.10, 15671.03, 28374.82, 44554.56, 9299.85, 4723.19, 37968.30, 15302.07, 0.00, 0.00, 0.00
144, 11898.26, 51340.50, 48999.74, 41750.13, 12600.26, 30745.99, 73886.39, 48372.23, 18973.28, 15656.06, 28349.43, 44478.32, 9276.80, 4695.90, 37916.89, 15259.36, 0.00, 0.00, 0.00
145, 11903.09, 51345.02, 49003.83, 41758.31, 12599.63, 30730.81, 73831.70, 48347.00, 18973.28, 15656.06, 28349.43, 44478.32, 9276.80, 4695.90, 37916.89, 15259.36, 0.00, 0.00, 0.00
146, 11903.09, 51345.02, 49003.83, 41758.31, 12599.63, 30730.81, 73831.70, 48347.00, 18965.50, 15671.39, 28373.91, 44549.91, 9308.50, 4727.44, 37959.56, 15290.89, 0.00, 0.00, 0.00
147, 11896.89, 51337.98, 49000.95, 41757.53, 12606.67, 30747.80, 73884.27, 48371.16, 18965.50, 15671.39, 28373.91, 44549.91, 9308.50, 4727.44, 37959.56, 15290.89, 0.00, 0.00, 0.00
148, 11896.89, 51337.98, 49000.95, 41757.53, 12606.67, 30747.80, 73884.27, 48371.16, 18969.68, 15657.80, 28354.46, 44499.10, 9284.87, 4702.96, 37912.74, 15253.81, 0.00, 0.00, 0.00
149, 11901.97, 51346.89, 48995.18, 41761.80, 12594.29, 30726.65, 73819.85, 48339.09, 18969.68, 15657.80, 28354.46, 44499.10, 9284.87, 4702.96, 37912.74, 15253.81, 0.00, 0.00, 0.00
150, 11901.97, 51346.89, 48995.18, 41761.80, 12594.29, 30726.65, 73819.85, 48339.09, 18966.26, 15666.90, 28365.99, 44533.30, 9310.60, 4721.00, 37941.73, 15275.03, 0.00, 0.00, 0.00
151, 11895.96, 51344.53, 49001.28, 41766.63, 12612.17, 30742.43, 73879.35, 48367.30, 18966.26, 15666.90, 28365.99, 44533.30, 9310.60, 4721.00, 37941.73, 15275.03, 0.91, 0.25, -0.22
152, 11895.96, 51344.53, 49001.28, 41766.63, 12612.17, 30742.43, 73879.35, 48367.30, 18960.58, 15657.87, 28350.57, 44510.28, 9291.80, 4698.92, 37920.11, 15261.28, 0.00, 0.00, 0.00
153, 11891.69, 51339.14, 48988.41, 41757.59, 12592.23, 30727.66, 73825.98, 48342.62, 18960.58, 15657.87, 28350.57, 44510.28, 9291.80, 4698.92, 37920.11, 15261.28, 0.00, 0.00, 0.00
154, 11891.69, 51339.14, 48988.41, 41757.59, 12592.23, 30727.66, 73825.98, 48342.62, 18953.99, 15662.78, 28359.33, 44534.06, 9313.61, 4711.12, 37945.71, 15283.72, 0.00, 0.00, 0.00
155, 11878.92, 51325.71, 48993.79, 41754.27, 12607.55, 30752.91, 73898.13, 48378.36, 18953.99, 15662.78, 28359.33, 44534.06, 9313.61, 4711.12, 37945.71, 15283.72, 0.00, 0.00, 0.00
156, 11878.92, 51325.71, 48993.79, 41754.27, 12607.55, 30752.91, 73898.13, 48378.36, 18956.42, 15650.29, 28351.06, 44533.08, 9304.72, 4693.17, 37931.73, 15273.17, 0.00, 0.00, 0.00
157, 11892.42, 51338.04, 48983.36, 41756.90, 12581.98, 30724.62, 73823.49, 48339.27, 18956.42, 15650.29, 28351.06, 44533.08, 9304.72, 4693.17, 37931.73, 15273.17, 0.00, 0.00, 0.00
158, 11892.42, 51338.04, 48983.36, 41756.90, 12581.98, 30724.62, 73823.49, 48339.27, 18964.31, 15652.81, 28349.32, 44515.71, 9325.84, 4701.76, 37930.84, 15258.08, 0.00, 0.00, 0.00
159, 11891.66, 51334.27, 48992.36, 41761.15, 12607.50, 30737.09, 73876.34, 48362.16, 18964.31, 15652.81, 28349.32, 44515.71, 9325.84, 4701.76, 37930.84, 15258.08, 0.00, 0.00, 0.00
160, 11891.66, 51334.27, 48992.36, 41761.15, 12607.50, 30737.09, 73876.34, 48362.16, 18976.88, 15654.42, 28349.05, 44529.79, 9329.64, 4699.05, 37929.48, 15254.01, 0.00, 0.00, 0.00
161, 11899.15, 51339.47, 48983.78, 41755.92, 12590.42, 30713.13, 73804.41, 48322.95, 18976.88, 15654.42, 28349.05, 44529.79, 9329.64, 4699.05, 37929.48, 15254.01, 0.92, 0.25, -0.22
162, 11899.15, 51339.47, 48983.78, 41755.92, 12590.42, 30713.13, 73804.41, 48322.95, 18975.85, 15661.40, 28342.46, 44490.77, 9339.07, 4705.69, 37914.84, 15234.28, 0.00, 0.00, 0.00
163, 11890.90, 51337.66, 48998.57, 41761.95, 12621.58, 30734.56, 73862.23, 48350.64, 18975.85, 15661.40, 28342.46, 44490.77, 9339.07, 4705.69, 37914.84, 15234.28, 0.00, 0.00, 0.00
164, 11890.90, 51337.66, 48998.57, 41761.95, 12621.58, 30734.56, 73862.23, 48350.64, 18962.04, 15662.78, 28362.31, 44561.11, 9341.17, 4706.41, 37943.94, 15255.45, 0.00, 0.00, 0.00
165, 11891.87, 51338.51, 48987.11, 41748.41, 12589.62, 30717.87, 73820.23, 48331.24, 18962.04, 15662.78, 28362.31, 44561.11, 9341.17, 4706.41, 37943.94, 15255.45, 0.00, 0.00, 0.00
166, 11891.87, 51338.51, 48987.11, 41748.41, 12589.62, 30717.87, 73820.23, 48331.24, 18969.99, 15656.08, 28350.10, 44496.02, 9339.97, 4691.72, 37919.87, 15231.46, 0.00, 0.00, 0.00
167, 11892.85, 51340.32, 49005.55, 41763.59, 12618.19, 30735.37, 73865.27, 48359.65, 18969.99, 15656.08, 28350.10, 44496.02, 9339.97, 4691.72, 37919.87, 15231.46, 0.00, 0.00, 0.00
168, 11892.85, 51340.32, 49005.55, 41763.59, 12618.19, 30735.37, 73865.27, 48359.65, 18966.66, 15663.77, 28366.15, 44569.73, 9345.08, 4696.93, 37956.43, 15257.34, 0.00, 0.00, 0.00
169, 11899.31, 51346.22, 48986.28, 41754.58, 12590.18, 30711.72, 73813.41, 48330.37, 18966.66, 15663.77, 28366.15, 44569.73, 9345.08, 4696.93, 37956.43, 15257.34, 0.00, 0.00, 0.00
170, 11899.31, 51346.22, 48986.28, 41754.58, 12590.18, 30711.72, 73813.41, 48330.37, 18971.62, 15662.18, 28341.77, 44476.37, 9338.69, 4690.13, 37916.05, 15217.22, 0.00, 0.00, 0.00
171, 11886.01, 51333.64, 48997.28, 41763.00, 12616.80, 30731.30, 73845.65, 48346.73, 18971.62, 15662.18, 28341.77, 44476.37, 9338.69, 4690.13, 37916.05, 15217.22, 0.92, 0.25, -0.22
172, 11886.01, 51333.64, 48997.28, 41763.00, 12616.80, 30731.30, 73845.65, 48346.73, 18957.83, 15668.37, 28358.22, 44562.11, 9345.55, 4707.68, 37961.35, 15254.93, 0.00, 0.00, 0.00
173, 11879.26, 51326.53, 48982.26, 41751.49, 12591.23, 30726.56, 73822.67, 48332.43, 18957.83, 15668.37, 28358.22, 44562.11, 9345.55, 4707.68, 37961.35, 15254.93, 0.00, 0.00, 0.00
174, 11879.26, 51326.53, 48982.26, 41751.49, 12591.23, 30726.56, 73822.67, 48332.43, 18957.50, 15659.61, 28332.62, 44468.79, 9326.38, 4692.23, 37910.03, 15214.83, 0.00, 0.00, 0.00
175, 11875.41, 51325.04, 48991.51, 41764.86, 12613.78, 30746.79, 73860.69, 48356.70, 18957.50, 15659.61, 28332.62, 44468.79, 9326.38, 4692.23, 37910.03, 15214.83, 0.00, 0.00, 0.00
176, 11875.41, 51325.04, 48991.51, 41764.86, 12613.78, 30746.79, 73860.69, 48356.70, 18955.60, 15669.31, 28363.47, 44577.16, 9348.50, 4713.18, 37965.46, 15267.09, 0.00, 0.00, 0.00
177, 11889.94, 51335.16, 48985.41, 41763.03, 12595.16, 30733.18, 73840.93, 48346.82, 18955.60, 15669.31, 28363.47, 44577.16, 9348.50, 4713.18, 37965.46, 15267.09, 0.00, 0.00, 0.00
178, 11889.94, 51335.16, 48985.41, 41763.03, 12595.16, 30733.18, 73840.93, 48346.82, 18975.78, 15652.81, 28336.29, 44463.81, 9337.84, 4689.91, 37901.65, 15216.78, 0.00, 0.00, 0.00
179, 11883.57, 51331.85, 48995.85, 41770.49, 12614.45, 30744.06, 73855.75, 48358.64, 18975.78, 15652.81, 28336.29, 44463.81, 9337.84, 4689.91, 37901.65, 15216.78, 0.00, 0.00, 0.00
180, 11883.57, 51331.85, 48995.85, 41770.49, 12614.45, 30744.06, 73855.75, 48358.64, 18966.46, 15666.07, 28365.39, 44575.50, 9364.98, 4713.36, 37959.36, 15271.49, 0.00, 0.00, 0.00
181, 11887.17, 51339.88, 48986.51, 41759.07, 12594.76, 30733.20, 73854.34, 48353.26, 18966.46, 15666.07, 28365.39, 44575.50, 9364.98, 4713.36, 37959.36, 15271.49, 0.92, 0.25, -0.22
182, 11887.17, 51339.88, 48986.51, 41759.07, 12594.76, 30733.20, 73854.34, 48353.26, 18968.09, 15657.91, 28333.09, 44468.77, 9340.24, 4684.66, 37895.21, 15219.21, 0.00, 0.00, 0.00
183, 11880.89, 51338.47, 48990.71, 41760.77, 12604.13, 30732.66, 73842.78, 48346.17, 18968.09, 15657.91, 28333.09, 44468.77, 9340.24, 4684.66, 37895.21, 15219.21, 0.00, 0.00, 0.00
184, 11880.89, 51338.47, 48990.71, 41760.77, 12604.13, 30732.66, 73842.78, 48346.17, 18964.40, 15666.27, 28355.94, 44565.80, 9373.74, 4708.17, 37952.39, 15263.85, 0.00, 0.00, 0.00
185, 11881.43, 51340.14, 48983.60, 41757.86, 12594.72, 30722.38, 73850.97, 48346.46, 18964.40, 15666.27, 28355.94, 44565.80, 9373.74, 4708.17, 37952.39, 15263.85, 0.00, 0.00, 0.00
186, 11881.43, 51340.14, 48983.60, 41757.86, 12594.72, 30722.38, 73850.97, 48346.46, 18966.35, 15649.42, 28323.64, 44454.11, 9352.08, 4677.84, 37889.22, 15205.29, 0.00, 0.00, 0.00
187, 11880.53, 51342.45, 48992.21, 41769.33, 12602.81, 30714.80, 73815.16, 48336.36, 18966.35, 15649.42, 28323.64, 44454.11, 9352.08, 4677.84, 37889.22, 15205.29, 0.00, 0.00, 0.00
188, 11880.53, 51342.45, 48992.21, 41769.33, 12602.81, 30714.80, 73815.16, 48336.36, 18951.62, 15669.27, 28361.41, 44558.98, 9392.02, 4716.22, 37961.22, 15266.53, 0.00, 0.00, 0.00
189, 11863.57, 51325.44, 48984.74, 41757.77, 12596.39, 30737.92, 73875.09, 48366.58, 18951.62, 15669.27, 28361.41, 44558.98, 9392.02, 4716.22, 37961.22, 15266.53, 0.00, 0.00, 0.00
190, 11863.57, 51325.44, 48984.74, 41757.77, 12596.39, 30737.92, 73875.09, 48366.58, 18954.01, 15650.09, 28328.82, 44472.41, 9361.22, 4685.93, 37907.21, 15232.29, 0.00, 0.00, 0.00
191, 11868.46, 51334.56, 48986.28, 41765.39, 12590.07, 30726.76, 73831.72, 48342.39, 18954.01, 15650.09, 28328.82, 44472.41, 9361.22, 4685.93, 37907.21, 15232.29, 0.91, 0.25, -0.23
192, 11868.46, 51334.56, 48986.28, 41765.39, 12590.07, 30726.76, 73831.72, 48342.39, 18943.04, 15665.91, 28350.88, 44550.11, 9391.58, 4717.25, 37959.47, 15283.05, 0.00, 0.00, 0.00
193, 11857.40, 51321.19, 48985.95, 41758.96, 12597.73, 30746.41, 73895.83, 48378.63, 18943.04, 15665.91, 28350.88, 44550.11, 9391.58, 4717.25, 37959.47, 15283.05, 0.00, 0.00, 0.00
194, 11857.40, 51321.19, 48985.95, 41758.96, 12597.73, 30746.41, 73895.83, 48378.63, 18944.67, 15650.07, 28325.07, 44483.32, 9367.88, 4686.09, 37916.22, 15258.13, 0.00, 0.00, 0.00
195, 11859.52, 51324.77, 48978.66, 41757.75, 12588.77, 30733.27, 73846.74, 48358.58, 18944.67, 15650.07, 28325.07, 44483.32, 9367.88, 4686.09, 37916.22, 15258.13, 0.00, 0.00, 0.00
196, 11859.52, 51324.77, 48978.66, 41757.75, 12588.77, 30733.27, 73846.74, 48358.58, 18946.72, 15663.12, 28344.31, 44538.29, 9397.88, 4710.27, 37956.66, 15286.83, 0.00, 0.00, 0.00
197, 11868.55, 51332.77, 48989.88, 41762.04, 12598.76, 30744.42, 73898.09, 48377.33, 18946.72, 15663.12, 28344.31, 44538.29, 9397.88, 4710.27, 37956.66, 15286.83, 0.00, 0.00, 0.00
198, 11868.55, 51332.77, 48989.88, 41762.04, 12598.76, 30744.42, 73898.09, 48377.33, 18955.44, 15652.39, 28324.91, 44478.81, 9378.19, 4687.07, 37911.53, 15248.36, 0.00, 0.00, 0.00
199, 11872.67, 51334.22, 48987.49, 41766.94, 12582.33, 30718.40, 73824.14, 48333.43, 18955.44, 15652.39, 28324.91, 44478.81, 9378.19, 4687.07, 37911.53, 15248.36, 0.00, 0.00, 0.00
200, 11872.67, 51334.22, 48987.49, 41766.94, 12582.33, 30718.40, 73824.14, 48333.43, 18954.53, 15668.82, 28344.02, 44516.27, 9407.98, 4710.97, 37940.34, 15268.16, 0.00, 0.00, 0.00
201, 11873.34, 51334.38, 48989.95, 41766.60, 12599.57, 30740.55, 73888.00, 48368.30, 18954.53, 15668.82, 28344.02, 44516.27, 9407.98, 4710.97, 37940.34, 15268.16, 0.91, 0.26, -0.22
202, 11873.34, 51334.38, 48989.95, 41766.60, 12599.57, 30740.55, 73888.00, 48368.30, 18957.54, 15661.55, 28333.07, 44497.07, 9389.97, 4690.63, 37910.95, 15242.32, 0.00, 0.00, 0.00
203, 11874.68, 51333.33, 48977.39, 41751.67, 12578.15, 30721.33, 73824.75, 48336.38, 18957.54, 15661.55, 28333.07, 44497.07, 9389.97, 4690.63, 37910.95, 15242.32, 0.00, 0.00, 0.00
204, 11874.68, 51333.33, 48977.39, 41751.67, 12578.15, 30721.33, 73824.75, 48336.38, 18956.87, 15668.17, 28337.63, 44502.68, 9405.84, 4700.06, 37922.32, 15243.42, 0.00, 0.00, 0.00
205, 11877.22, 51336.08, 48981.75, 41759.92, 12599.79, 30735.62, 73873.83, 48357.21, 18956.87, 15668.17, 28337.63, 44502.68, 9405.84, 4700.06, 37922.32, 15243.42, 0.00, 0.00, 0.00
206, 11877.22, 51336.08, 48981.75, 41759.92, 12599.79, 30735.62, 73873.83, 48357.21, 18966.66, 15663.01, 28333.38, 44499.17, 9404.74, 4693.35, 37913.09, 15235.35, 0.00, 0.00, 0.00
207, 11878.95, 51336.59, 48977.23, 41765.64, 12585.28, 30721.11, 73811.98, 48330.08, 18966.66, 15663.01, 28333.38, 44499.17, 9404.74, 4693.35, 37913.09, 15235.35, 0.00, 0.00, 0.00
208, 11878.95, 51336.59, 48977.23, 41765.64, 12585.28, 30721.11, 73811.98, 48330.08, 18958.59, 15666.76, 28348.11, 44496.80, 9419.47, 4705.53, 37925.84, 15245.03, 0.00, 0.00, 0.00
209, 11871.28, 51327.25, 48984.11, 41766.74, 12605.42, 30747.19, 73887.76, 48368.75, 18958.59, 15666.76, 28348.11, 44496.80, 9419.47, 4705.53, 37925.84, 15245.03, 0.00, 0.00, 0.00
210, 11871.28, 51327.25, 48984.11, 41766.74, 12605.42, 30747.19, 73887.76, 48368.75, 18962.21, 15661.42, 28351.80, 44528.16, 9418.35, 4698.38, 37933.82, 15257.37, 0.00, 0.00, 0.00
211, 11884.11, 51340.03, 48973.96, 41771.39, 12584.70, 30724.62, 73818.13, 48329.95, 18962.21, 15661.42, 28351.80, 44528.16, 9418.35, 4698.38, 37933.82, 15257.37, 0.91, 0.26, -0.22
212, 11884.11, 51340.03, 48973.96, 41771.39, 12584.70, 30724.62, 73818.13, 48329.95, 18967.42, 15669.42, 28355.96, 44492.31, 9433.58, 4708.42, 37926.04, 15249.16, 0.00, 0.00, 0.00
213, 11882.32, 51348.35, 48989.50, 41781.82, 12615.79, 30760.78, 73890.22, 48373.66, 18967.42, 15669.42, 28355.96, 44492.31, 9433.58, 4708.42, 37926.04, 15249.16, 0.00, 0.00, 0.00
214, 11882.32, 51348.35, 48989.50, 41781.82, 12615.79, 30760.78, 73890.22, 48373.66, 18969.50, 15673.87, 28362.02, 44547.11, 9441.40, 4711.46, 37947.74, 15272.48, 0.00, 0.00, 0.00
215, 11883.48, 51349.27, 48970.46, 41763.70, 12584.95, 30736.80, 73831.12, 48337.84, 18969.50, 15673.87, 28362.02, 44547.11, 9441.40, 4711.46, 37947.74, 15272.48, 0.00, 0.00, 0.00
216, 11883.48, 51349.27, 48970.46, 41763.70, 12584.95, 30736.80, 73831.12, 48337.84, 18954.50, 15660.01, 28341.97, 44478.83, 9432.37, 4698.00, 37913.07, 15241.54, 0.00, 0.00, 0.00
217, 11864.71, 51327.67, 48969.54, 41754.91, 12603.90, 30754.21, 73887.27, 48367.83, 18954.50, 15660.01, 28341.97, 44478.83, 9432.37, 4698.00, 37913.07, 15241.54, 0.00, 0.00, 0.00
218, 11864.71, 51327.67, 48969.54, 41754.91, 12603.90, 30754.21, 73887.27, 48367.83, 18953.36, 15660.66, 28350.68, 44555.47, 9446.09, 4701.13, 37947.94, 15274.73, 0.00, 0.00, 0.00
219, 11872.67, 51332.37, 48958.93, 41750.09, 12578.33, 30732.06, 73850.01, 48344.18, 18953.36, 15660.66, 28350.68, 44555.47, 9446.09, 4701.13, 37947.94, 15274.73, 0.00, 0.00, 0.00
220, 11872.67, 51332.37, 48958.93, 41750.09, 12578.33, 30732.06, 73850.01, 48344.18, 18959.13, 15651.38, 28327.04, 44466.54, 9439.57, 4684.97, 37902.28, 15235.89, 0.00, 0.00, 0.00
221, 11864.19, 51329.62, 48971.60, 41759.67, 12599.92, 30739.26, 73883.91, 48359.63, 18959.13, 15651.38, 28327.04, 44466.54, 9439.57, 4684.97, 37902.28, 15235.89, 0.92, 0.25, -0.22
222, 11864.19, 51329.62, 48971.60, 41759.67, 12599.92, 30739.26, 73883.91, 48359.63, 18955.75, 15656.06, 28346.19, 44556.55, 9455.84, 4700.64, 37946.71, 15277.13, 0.00, 0.00, 0.00
223, 11870.21, 51336.32, 48963.86, 41756.25, 12582.38, 30722.07, 73857.20, 48343.80, 18955.75, 15656.06, 28346.19, 44556.55, 9455.84, 4700.64, 37946.71, 15277.13, 0.00, 0.00, 0.00
224, 11870.21, 51336.32, 48963.86, 41756.25, 12582.38, 30722.07, 73857.20, 48343.80, 18960.52, 15648.48, 28325.20, 44456.05, 9440.59, 4682.49, 37896.91, 15234.52, 0.00, 0.00, 0.00
225, 11861.02, 51331.52, 48977.18, 41763.76, 12604.04, 30740.71, 73892.67, 48365.17, 18960.52, 15648.48, 28325.20, 44456.05, 9440.59, 4682.49, 37896.91, 15234.52, 0.00, 0.00, 0.00
226, 11861.02, 51331.52, 48977.18, 41763.76, 12604.04, 30740.71, 73892.67, 48365.17, 18954.37, 15656.73, 28352.56, 44561.93, 9465.16, 4702.56, 37954.36, 15282.13, 0.00, 0.00, 0.00
227, 11878.66, 51346.70, 48973.74, 41767.47, 12579.41, 30723.37, 73866.91, 48347.78, 18954.37, 15656.73, 28352.56, 44561.93, 9465.16, 4702.56, 37954.36, 15282.13, 0.00, 0.00, 0.00
228, 11878.66, 51346.70, 48973.74, 41767.47, 12579.41, 30723.37, 73866.91, 48347.78, 18970.69, 15647.29, 28320.84, 44440.07, 9453.65, 4682.76, 37889.71, 15225.05, 0.00, 0.00, 0.00
229, 11874.88, 51341.46, 48990.21, 41780.97, 12608.24, 30736.33, 73868.67, 48346.89, 18970.69, 15647.29, 28320.84, 44440.07, 9453.65, 4682.76, 37889.71, 15225.05, 0.00, 0.00, 0.00
230, 11874.88, 51341.46, 48990.21, 41780.97, 12608.24, 30736.33, 73868.67, 48346.89, 18961.59, 15665.96, 28356.03, 44556.26, 9486.30, 4712.44, 37959.90, 15280.70, 0.00, 0.00, 0.00
231, 11875.01, 51339.12, 48985.07, 41770.74, 12589.49, 30738.79, 73884.52, 48354.53, 18961.59, 15665.96, 28356.03, 44556.26, 9486.30, 4712.44, 37959.90, 15280.70, 0.92, 0.25, -0.22
232, 11875.01, 51339.12, 48985.07, 41770.74, 12589.49, 30738.79, 73884.52, 48354.53, 18969.39, 15652.26, 28330.10, 44453.17, 9463.06, 4684.34, 37902.03, 15234.75, 0.00, 0.00, 0.00
233, 11874.57, 51340.10, 48993.41, 41776.64, 12599.75, 30741.07, 73871.20, 48352.99, 18969.39, 15652.26, 28330.10, 44453.17, 9463.06, 4684.34, 37902.03, 15234.75, 0.00, 0.00, 0.00
234, 11874.57, 51340.10, 48993.41, 41776.64, 12599.75, 30741.07, 73871.20, 48352.99, 18968.81, 15663.30, 28356.00, 44548.72, 9494.95, 4711.43, 37955.88, 15280.61, 0.00, 0.00, 0.00
235, 11877.92, 51345.06, 48987.80, 41766.69, 12591.01, 30739.95, 73885.59, 48359.32, 18968.81, 15663.30, 28356.00, 44548.72, 9494.95, 4711.43, 37955.88, 15280.61, 0.00, 0.00, 0.00
236, 11877.92, 51345.06, 48987.80, 41766.69, 12591.01, 30739.95, 73885.59, 48359.32, 18978.42, 15652.81, 28323.88, 44441.39, 9465.20, 4684.57, 37886.92, 15228.49, 0.00, 0.00, 0.00
237, 11882.05, 51357.89, 48986.93, 41779.03, 12596.84, 30737.34, 73846.30, 48344.41, 18978.42, 15652.81, 28323.88, 44441.39, 9465.20, 4684.57, 37886.92, 15228.49, 0.00, 0.00, 0.00
238, 11882.05, 51357.89, 48986.93, 41779.03, 12596.84, 30737.34, 73846.30, 48344.41, 18974.04, 15672.39, 28353.41, 44531.36, 9498.53, 4718.03, 37942.06, 15280.05, 0.00, 0.00, 0.00
239, 11872.26, 51353.51, 48984.05, 41769.98, 12598.61, 30745.70, 73883.64, 48359.63, 18974.04, 15672.39, 28353.41, 44531.36, 9498.53, 4718.03, 37942.06, 15280.05, 0.00, 0.00, 0.00
240, 11872.26, 51353.51, 48984.05, 41769.98, 12598.61, 30745.70, 73883.64, 48359.63, 18971.71, 15652.34, 28329.47, 44453.91, 9469.92, 4685.44, 37893.13, 15247.02, 0.00, 0.00, 0.00
241, 11869.16, 51349.87, 48985.10, 41763.59, 12596.77, 30743.24, 73851.30, 48346.78, 18971.71, 15652.34, 28329.47, 44453.91, 9469.92, 4685.44, 37893.13, 15247.02, 0.91, 0.24, -0.22
242, 11869.16, 51349.87, 48985.10, 41763.59, 12596.77, 30743.24, 73851.30, 48346.78, 18975.13, 15663.10, 28354.15, 44525.41, 9497.03, 4708.89, 37944.12, 15292.97, 0.00, 0.00, 0.00
243, 11876.29, 51351.28, 48990.02, 41765.62, 12608.80, 30751.84, 73893.59, 48367.16, 18975.13, 15663.10, 28354.15, 44525.41, 9497.03, 4708.89, 37944.12, 15292.97, 0.00, 0.00, 0.00
244, 11876.29, 51351.28, 48990.02, 41765.62, 12608.80, 30751.84, 73893.59, 48367.16, 18976.63, 15652.26, 28330.90, 44453.59, 9468.56, 4683.56, 37904.09, 15259.78, 0.00, 0.00, 0.00
245, 11876.51, 51350.38, 48986.39, 41765.55, 12597.91, 30741.13, 73842.34, 48345.17, 18976.63, 15652.26, 28330.90, 44453.59, 9468.56, 4683.56, 37904.09, 15259.78, 0.00, 0.00, 0.00
246, 11876.51, 51350.38, 48986.39, 41765.55, 12597.91, 30741.13, 73842.34, 48345.17, 18965.39, 15662.78, 28352.56, 44511.02, 9476.31, 4707.14, 37944.61, 15287.34, 0.00, 0.00, 0.00
247, 11869.92, 51346.00, 48984.92, 41760.93, 12599.39, 30760.89, 73905.95, 48376.66, 18965.39, 15662.78, 28352.56, 44511.02, 9476.31, 4707.14, 37944.61, 15287.34, 0.00, 0.00, 0.00
248, 11869.92, 51346.00, 48984.92, 41760.93, 12599.39, 30760.89, 73905.95, 48376.66, 18980.68, 15651.36, 28331.13, 44458.29, 9427.94, 4681.28, 37900.93, 15246.59, 0.00, 0.00, 0.00
249, 11889.14, 51365.11, 48986.51, 41774.11, 12588.52, 30733.07, 73816.48, 48328.74, 18980.68, 15651.36, 28331.13, 44458.29, 9427.94, 4681.28, 37900.93, 15246.59, 0.00, 0.00, 0.00
250, 11889.14, 51365.11, 48986.51, 41774.11, 12588.52, 30733.07, 73816.48, 48328.74, 18969.37, 15673.49, 28354.06, 44495.73, 9423.18, 4714.65, 37935.65, 15269.26, 0.00, 0.00, 0.00
251, 11864.95, 51344.93, 48991.74, 41770.94, 12607.79, 30770.86, 73910.66, 48380.17, 18969.37, 15673.49, 28354.06, 44495.73, 9423.18, 4714.65, 37935.65, 15269.26, 0.92, 0.25, -0.22
252, 11864.95, 51344.93, 48991.74, 41770.94, 12607.79, 30770.86, 73910.66, 48380.17, 18972.38, 15664.24, 28342.68, 44491.04, 9367.53, 4696.28, 37921.19, 15258.10, 0.00, 0.00, 0.00
253, 11893.68, 51365.20, 48993.52, 41776.62, 12587.83, 30730.25, 73818.29, 48326.08, 18972.38, 15664.24, 28342.68, 44491.04, 9367.53, 4696.28, 37921.19, 15258.10, 0.00, 0.00, 0.00
254, 11893.68, 51365.20, 48993.52, 41776.62, 12587.83, 30730.25, 73818.29, 48326.08, 18981.59, 15674.05, 28349.21, 44478.23, 9366.21, 4713.13, 37932.94, 15257.55, 0.00, 0.00, 0.00
255, 11884.51, 51350.07, 49004.68, 41780.59, 12618.90, 30753.96, 73886.77, 48356.59, 18981.59, 15674.05, 28349.21, 44478.23, 9366.21, 4713.13, 37932.94, 15257.55, 0.00, 0.00, 0.00
0, 11884.51, 51350.07, 49004.68, 41780.59, 12618.90, 30753.96, 73886.77, 48356.59, 18974.06, 15666.87, 28348.18, 44497.00, 9327.72, 4700.64, 37931.63, 15262.93, 0.00, 0.00, 0.00
1, 11888.29, 51346.80, 48989.99, 41773.17, 12590.60, 30734.07, 73825.55, 48328.09, 18974.06, 15666.87, 28348.18, 44497.00, 9327.72, 4700.64, 37931.63, 15262.93, 0.00, 0.00, 0.00
2, 11888.29, 51346.80, 48989.99, 41773.17, 12590.60, 30734.07, 73825.55, 48328.09, 18978.84, 15669.09, 28345.72, 44462.65, 9316.72, 4703.61, 37924.38, 15257.34, 0.00, 0.00, 0.00
3, 11888.67, 51351.12, 49007.23, 41786.29, 12619.12, 30757.01, 73886.98, 48357.42, 18978.84, 15669.09, 28345.72, 44462.65, 9316.72, 4703.61, 37924.38, 15257.34, 0.00, 0.00, 0.00
4, 11888.67, 51351.12, 49007.23, 41786.29, 12619.12, 30757.01, 73886.98, 48357.42, 18970.24, 15670.65, 28355.69, 44510.93, 9300.87, 4708.22, 37942.93, 15280.28, 0.00, 0.00, 0.00
5, 11890.95, 51352.57, 48997.55, 41777.55, 12592.15, 30741.94, 73829.44, 48331.89, 18970.24, 15670.65, 28355.69, 44510.93, 9300.87, 4708.22, 37942.93, 15280.28, 0.92, 0.25, -0.22
6, 11890.95, 51352.57, 48997.55, 41777.55, 12592.15, 30741.94, 73829.44, 48331.89, 18964.63, 15670.27, 28351.02, 44462.74, 9290.77, 4711.26, 37923.89, 15263.29, 0.00, 0.00, 0.00
7, 11880.29, 51351.01, 49012.52, 41783.90, 12615.97, 30769.52, 73891.49, 48367.09, 18964.63, 15670.27, 28351.02, 44462.74, 9290.77, 4711.26, 37923.89, 15263.29, 0.00, 0.00, 0.00
8, 11880.29, 51351.01, 49012.52, 41783.90, 12615.97, 30769.52, 73891.49, 48367.09, 18953.05, 15672.17, 28361.79, 44526.06, 9278.68, 4713.98, 37948.97, 15284.12, 0.00, 0.00, 0.00
9, 11883.66, 51351.07, 48994.08, 41770.47, 12585.13, 30750.30, 73846.70, 48342.73, 18953.05, 15672.17, 28361.79, 44526.06, 9278.68, 4713.98, 37948.97, 15284.12, 0.00, 0.00, 0.00
10, 11883.66, 51351.07, 48994.08, 41770.47, 12585.13, 30750.30, 73846.70, 48342.73, 18953.38, 15664.42, 28345.59, 44454.87, 9258.63, 4703.57, 37912.58, 15246.57, 0.00, 0.00, 0.00
11, 11874.48, 51342.16, 49001.97, 41774.00, 12605.15, 30772.61, 73901.75, 48376.64, 18953.38, 15664.42, 28345.59, 44454.87, 9258.63, 4703.57, 37912.58, 15246.57, 0.00, 0.00, 0.00
12, 11874.48, 51342.16, 49001.97, 41774.00, 12605.15, 30772.61, 73901.75, 48376.64, 18955.42, 15668.73, 28359.31, 44539.98, 9260.60, 4712.71, 37953.66, 15278.51, 0.00, 0.00, 0.00
13, 11888.18, 51355.37, 48992.50, 41768.23, 12584.23, 30751.62, 73859.93, 48355.16, 18955.42, 15668.73, 28359.31, 44539.98, 9260.60, 4712.71, 37953.66, 15278.51, 0.00, 0.00, 0.00
14, 11888.18, 51355.37, 48992.50, 41768.23, 12584.23, 30751.62, 73859.93, 48355.16, 18960.09, 15657.20, 28337.88, 44450.51, 9251.34, 4698.18, 37910.48, 15235.69, 0.00, 0.00, 0.00
15, 11881.63, 51343.16, 48997.41, 41766.34, 12607.25, 30764.31, 73896.59, 48373.44, 18960.09, 15657.20, 28337.88, 44450.51, 9251.34, 4698.18, 37910.48, 15235.69, 0.92, 0.25, -0.22
16, 11881.63, 51343.16, 48997.41, 41766.34, 12607.25, 30764.31, 73896.59, 48373.44, 18962.06, 15663.19, 28352.70, 44537.53, 9265.47, 4711.37, 37957.66, 15275.32, 0.00, 0.00, 0.00
17, 11891.13, 51358.59, 48994.71, 41764.81, 12587.25, 30744.13, 73859.52, 48352.10, 18962.06, 15663.19, 28352.70, 44537.53, 9265.47, 4711.37, 37957.66, 15275.32, 0.00, 0.00, 0.00
18, 11891.13, 51358.59, 48994.71, 41764.81, 12587.25, 30744.13, 73859.52, 48352.10, 18963.55, 15659.16, 28329.87, 44435.67, 9246.16, 4694.81, 37905.96, 15236.09, 0.00, 0.00, 0.00
19, 11881.43, 51347.66, 49004.21, 41767.56, 12608.17, 30752.45, 73878.66, 48362.54, 18963.55, 15659.16, 28329.87, 44435.67, 9246.16, 4694.81, 37905.96, 15236.09, 0.00, 0.00, 0.00
20, 11881.43, 51347.66, 49004.21, 41767.56, 12608.17, 30752.45, 73878.66, 48362.54, 18951.39, 15664.30, 28352.40, 44539.52, 9267.46, 4716.17, 37964.75, 15292.08, 0.00, 0.00, 0.00
21, 11877.34, 51337.69, 48992.88, 41752.54, 12587.00, 30749.63, 73883.13, 48359.05, 18951.39, 15664.30, 28352.40, 44539.52, 9267.46, 4716.17, 37964.75, 15292.08, 0.00, 0.00, 0.00
22, 11877.34, 51337.69, 48992.88, 41752.54, 12587.00, 30749.63, 73883.13, 48359.05, 18956.96, 15645.35, 28324.26, 44437.21, 9238.78, 4688.17, 37904.60, 15240.83, 0.00, 0.00, 0.00
23, 11878.19, 51338.67, 48999.05, 41753.86, 12599.41, 30755.69, 73881.72, 48363.83, 18956.96, 15645.35, 28324.26, 44437.21, 9238.78, 4688.17, 37904.60, 15240.83, 0.00, 0.00, 0.00
24, 11878.19, 51338.67, 48999.05, 41753.86, 12599.41, 30755.69, 73881.72, 48363.83, 18951.28, 15659.07, 28354.01, 44540.70, 9261.74, 4715.95, 37963.41, 15286.20, 0.00, 0.00, 0.00
25, 11876.49, 51340.19, 48994.39, 41746.98, 12587.65, 30755.96, 73896.66, 48368.64, 18951.28, 15659.07, 28354.01, 44540.70, 9261.74, 4715.95, 37963.41, 15286.20, 0.92, 0.25, -0.21
26, 11876.49, 51340.19, 48994.39, 41746.98, 12587.65, 30755.96, 73896.66, 48368.64, 18949.96, 15643.99, 28325.09, 44443.49, 9233.73, 4686.94, 37901.92, 15234.41, 0.00, 0.00, 0.00
27, 11874.54, 51339.96, 48995.80, 41750.62, 12595.05, 30755.44, 73880.78, 48362.69, 18949.96, 15643.99, 28325.09, 44443.49, 9233.73, 4686.94, 37901.92, 15234.41, 0.00, 0.00, 0.00
28, 11874.54, 51339.96, 48995.80, 41750.62, 12595.05, 30755.44, 73880.78, 48362.69, 18948.29, 15656.59, 28345.12, 44534.51, 9258.94, 4709.18, 37959.21, 15278.09, 0.00, 0.00, 0.00
29, 11881.47, 51344.44, 48993.70, 41746.44, 12594.18, 30755.22, 73899.73, 48370.85, 18948.29, 15656.59, 28345.12, 44534.51, 9258.94, 4709.18, 37959.21, 15278.09, 0.00, 0.00, 0.00
30, 11881.47, 51344.44, 48993.70, 41746.44, 12594.18, 30755.22, 73899.73, 48370.85, 18955.20, 15648.39, 28324.26, 44445.26, 9234.11, 4685.95, 37904.18, 15232.45, 0.00, 0.00, 0.00
31, 11887.26, 51350.18, 49004.68, 41754.06, 12596.21, 30750.05, 73868.13, 48353.19, 18955.20, 15648.39, 28324.26, 44445.26, 9234.11, 4685.95, 37904.18, 15232.45, 0.00, 0.00, 0.00
32, 11887.26, 51350.18, 49004.68, 41754.06, 12596.21, 30750.05, 73868.13, 48353.19, 18960.96, 15664.04, 28354.08, 44534.55, 9266.03, 4717.87, 37959.25, 15278.27, 0.00, 0.00, 0.00
33, 11892.22, 51348.28, 49009.02, 41750.51, 12597.44, 30762.71, 73911.16, 48375.50, 18960.96, 15664.04, 28354.08, 44534.55, 9266.03, 4717.87, 37959.25, 15278.27, 0.00, 0.00, 0.00
34, 11892.22, 51348.28, 49009.02, 41750.51, 12597.44, 30762.71, 73911.16, 48375.50, 18970.73, 15656.08, 28337.50, 44464.82, 9242.87, 4694.58, 37909.07, 15247.80, 0.00, 0.00, 0.00
35, 11888.74, 51346.70, 49011.85, 41755.43, 12597.06, 30760.74, 73877.70, 48361.06, 18970.73, 15656.08, 28337.50, 44464.82, 9242.87, 4694.58, 37909.07, 15247.80, 0.91, 0.25, -0.22
36, 11888.74, 51346.70, 49011.85, 41755.43, 12597.06, 30760.74, 73877.70, 48361.06, 18963.04, 15670.54, 28363.22, 44536.54, 9270.47, 4721.69, 37957.39, 15293.02, 0.00, 0.00, 0.00
37, 11890.55, 51350.18, 49003.83, 41752.10, 12597.44, 30771.18, 73928.93, 48381.24, 18963.04, 15670.54, 28363.22, 44536.54, 9270.47, 4721.69, 37957.39, 15293.02, 0.00, 0.00, 0.00
38, 11890.55, 51350.18, 49003.83, 41752.10, 12597.44, 30771.18, 73928.93, 48381.24, 18969.43, 15654.49, 28336.98, 44465.82, 9253.11, 4690.71, 37909.59, 15260.56, 0.00, 0.00, 0.00
39, 11889.61, 51348.84, 48997.73, 41749.44, 12586.94, 30747.39, 73860.71, 48349.35, 18969.43, 15654.49, 28336.98, 44465.82, 9253.11, 4690.71, 37909.59, 15260.56, 0.00, 0.00, 0.00
40, 11889.61, 51348.84, 48997.73, 41749.44, 12586.94, 30747.39, 73860.71, 48349.35, 18960.80, 15665.29, 28352.61, 44508.22, 9285.50, 4710.45, 37944.25, 15286.74, 0.00, 0.00, 0.00
41, 11878.52, 51339.18, 48998.35, 41746.48, 12602.11, 30762.08, 73920.57, 48377.02, 18960.80, 15665.29, 28352.61, 44508.22, 9285.50, 4710.45, 37944.25, 15286.74, 0.00, 0.00, 0.00
42, 11878.52, 51339.18, 48998.35, 41746.48, 12602.11, 30762.08, 73920.57, 48377.02, 18955.73, 15654.25, 28339.15, 44482.36, 9267.39, 4689.53, 37917.07, 15264.86, 0.00, 0.00, 0.00
43, 11874.92, 51335.59, 48989.19, 41739.60, 12583.47, 30746.48, 73865.78, 48352.12, 18955.73, 15654.25, 28339.15, 44482.36, 9267.39, 4689.53, 37917.07, 15264.86, 0.00, 0.00, 0.00
44, 11874.92, 51335.59, 48989.19, 41739.60, 12583.47, 30746.48, 73865.78, 48352.12, 18956.16, 15661.53, 28351.78, 44507.48, 9290.59, 4708.35, 37938.42, 15273.82, 0.00, 0.00, 0.00
45, 11873.89, 51340.39, 48994.62, 41741.39, 12599.75, 30760.56, 73924.13, 48378.65, 18956.16, 15661.53, 28351.78, 44507.48, 9290.59, 4708.35, 37938.42, 15273.82, 0.91, 0.24, -0.22
46, 11873.89, 51340.39, 48994.62, 41741.39, 12599.75, 30760.56, 73924.13, 48378.65, 18959.40, 15650.15, 28332.02, 44484.44, 9276.15, 4689.71, 37916.36, 15241.54, 0.00, 0.00, 0.00
47, 11872.75, 51336.59, 48989.77, 41740.20, 12580.68, 30732.48, 73848.64, 48336.96, 18959.40, 15650.15, 28332.02, 44484.44, 9276.15, 4689.71, 37916.36, 15241.54, 0.00, 0.00, 0.00
48, 11872.75, 51336.59, 48989.77, 41740.20, 12580.68, 30732.48, 73848.64, 48336.96, 18952.33, 15655.41, 28340.83, 44484.91, 9294.06, 4701.78, 37926.48, 15236.07, 0.00, 0.00, 0.00
49, 11879.57, 51342.67, 49005.08, 41753.41, 12603.46, 30752.67, 73906.35, 48371.88, 18952.33, 15655.41, 28340.83, 44484.91, 9294.06, 4701.78, 37926.48, 15236.07, 0.00, 0.00, 0.00
50, 11879.57, 51342.67, 49005.08, 41753.41, 12603.46, 30752.67, 73906.35, 48371.88, 18965.43, 15655.36, 28339.75, 44495.77, 9296.16, 4696.73, 37930.06, 15241.34, 0.00, 0.00, 0.00
51, 11885.94, 51346.71, 48994.71, 41759.61, 12582.20, 30731.97, 73838.47, 48338.68, 18965.43, 15655.36, 28339.75, 44495.77, 9296.16, 4696.73, 37930.06, 15241.34, 0.00, 0.00, 0.00
52, 11885.94, 51346.71, 48994.71, 41759.61, 12582.20, 30731.97, 73838.47, 48338.68, 18961.28, 15657.69, 28342.14, 44468.26, 9302.24, 4704.24, 37925.97, 15241.72, 0.00, 0.00, 0.00
53, 11875.33, 51340.95, 49000.95, 41767.00, 12605.36, 30753.56, 73903.98, 48371.74, 18961.28, 15657.69, 28342.14, 44468.26, 9302.24, 4704.24, 37925.97, 15241.72, 0.00, 0.00, 0.00
54, 11875.33, 51340.95, 49000.95, 41767.00, 12605.36, 30753.56, 73903.98, 48371.74, 18963.29, 15656.57, 28340.47, 44499.62, 9296.34, 4700.37, 37936.56, 15254.57, 0.00, 0.00, 0.00
55, 11892.87, 51364.73, 48999.65, 41769.24, 12586.29, 30725.09, 73825.87, 48329.10, 18963.29, 15656.57, 28340.47, 44499.62, 9296.34, 4700.37, 37936.56, 15254.57, 0.92, 0.24, -0.21
56, 11892.87, 51364.73, 48999.65, 41769.24, 12586.29, 30725.09, 73825.87, 48329.10, 18970.26, 15660.84, 28330.03, 44436.00, 9303.53, 4706.74, 37921.95, 15236.58, 0.00, 0.00, 0.00
57, 11884.44, 51361.04, 49015.81, 41776.44, 12619.28, 30750.59, 73880.18, 48358.51, 18970.26, 15660.84, 28330.03, 44436.00, 9303.53, 4706.74, 37921.95, 15236.58, 0.00, 0.00, 0.00
58, 11884.44, 51361.04, 49015.81, 41776.44, 12619.28, 30750.59, 73880.18, 48358.51, 18971.98, 15668.88, 28343.73, 44496.64, 9309.93, 4708.77, 37949.66, 15260.50, 0.00, 0.00, 0.00
59, 11883.89, 51357.73, 49002.98, 41766.82, 12594.74, 30735.08, 73837.15, 48336.45, 18971.98, 15668.88, 28343.73, 44496.64, 9309.93, 4708.77, 37949.66, 15260.50, 0.00, 0.00, 0.00
60, 11883.89, 51357.73, 49002.98, 41766.82, 12594.74, 30735.08, 73837.15, 48336.45, 18974.78, 15667.66, 28334.81, 44420.45, 9302.80, 4698.20, 37909.36, 15225.96, 0.00, 0.00, 0.00
61, 11873.49, 51347.90, 49016.12, 41774.25, 12621.85, 30763.62, 73898.27, 48371.79, 18974.78, 15667.66, 28334.81, 44420.45, 9302.80, 4698.20, 37909.36, 15225.96, 0.00, 0.00, 0.00
62, 11873.49, 51347.90, 49016.12, 41774.25, 12621.85, 30763.62, 73898.27, 48371.79, 18960.96, 15675.84, 28364.70, 44529.34, 9322.40, 4712.44, 37958.76, 15278.87, 0.00, 0.00, 0.00
63, 11885.85, 51353.49, 49001.77, 41763.56, 12590.78, 30755.33, 73879.71, 48359.92, 18960.96, 15675.84, 28364.70, 44529.34, 9322.40, 4712.44, 37958.76, 15278.87, 0.00, 0.00, 0.00
64, 11885.85, 51353.49, 49001.77, 41763.56, 12590.78, 30755.33, 73879.71, 48359.92, 18975.85, 15663.28, 28335.44, 44428.85, 9316.50, 4699.68, 37907.82, 15240.47, 0.00, 0.00, 0.00
65, 11892.60, 51361.25, 49017.91, 41781.09, 12613.18, 30770.24, 73894.15, 48371.12, 18975.85, 15663.28, 28335.44, 44428.85, 9316.50, 4699.68, 37907.82, 15240.47, 0.92, 0.24, -0.21
66, 11892.60, 51361.25, 49017.91, 41781.09, 12613.18, 30770.24, 73894.15, 48371.12, 18983.74, 15669.62, 28350.37, 44503.64, 9341.71, 4720.51, 37954.78, 15281.04, 0.00, 0.00, 0.00
67, 11896.69, 51370.23, 49012.41, 41777.67, 12595.30, 30757.56, 73863.69, 48350.51, 18983.74, 15669.62, 28350.37, 44503.64, 9341.71, 4720.51, 37954.78, 15281.04, 0.00, 0.00, 0.00
68, 11896.69, 51370.23, 49012.41, 41777.67, 12595.30, 30757.56, 73863.69, 48350.51, 18973.70, 15660.26, 28329.07, 44405.61, 9322.62, 4695.70, 37899.37, 15234.26, 0.00, 0.00, 0.00
69, 11886.79, 51362.68, 49016.32, 41777.38, 12605.96, 30769.25, 73879.93, 48360.57, 18973.70, 15660.26, 28329.07, 44405.61, 9322.62, 4695.70, 37899.37, 15234.26, 0.00, 0.00, 0.00
70, 11886.79, 51362.68, 49016.32, 41777.38, 12605.96, 30769.25, 73879.93, 48360.57, 18964.25, 15676.22, 28360.70, 44518.37, 9348.48, 4717.94, 37957.51, 15286.60, 0.00, 0.00, 0.00
71, 11884.36, 51361.78, 48998.29, 41756.97, 12584.66, 30765.21, 73889.45, 48363.25, 18964.25, 15676.22, 28360.70, 44518.37, 9348.48, 4717.94, 37957.51, 15286.60, 0.00, 0.00, 0.00
72, 11884.36, 51361.78, 48998.29, 41756.97, 12584.66, 30765.21, 73889.45, 48363.25, 18976.94, 15659.25, 28328.11, 44407.75, 9324.03, 4685.06, 37892.24, 15232.00, 0.00, 0.00, 0.00
73, 11890.81, 51363.48, 49007.70, 41761.95, 12600.19, 30753.67, 73863.88, 48346.48, 18976.94, 15659.25, 28328.11, 44407.75, 9324.03, 4685.06, 37892.24, 15232.00, 0.00, 0.00, 0.00
74, 11890.81, 51363.48, 49007.70, 41761.95, 12600.19, 30753.67, 73863.88, 48346.48, 18968.43, 15675.19, 28357.37, 44512.34, 9361.25, 4720.40, 37959.50, 15292.19, 0.00, 0.00, 0.00
75, 11894.32, 51363.88, 49013.64, 41762.60, 12593.93, 30757.36, 73884.13, 48352.50, 18968.43, 15675.19, 28357.37, 44512.34, 9361.25, 4720.40, 37959.50, 15292.19, 0.92, 0.24, -0.21
76, 11894.32, 51363.88, 49013.64, 41762.60, 12593.93, 30757.36, 73884.13, 48352.50, 18977.10, 15663.19, 28336.11, 44415.20, 9348.42, 4699.28, 37906.57, 15256.29, 0.00, 0.00, 0.00
77, 11887.28, 51365.04, 49023.27, 41775.50, 12602.87, 30766.37, 73875.28, 48354.40, 18977.10, 15663.19, 28336.11, 44415.20, 9348.42, 4699.28, 37906.57, 15256.29, 0.00, 0.00, 0.00
78, 11887.28, 51365.04, 49023.27, 41775.50, 12602.87, 30766.37, 73875.28, 48354.40, 18974.06, 15679.73, 28368.43, 44518.57, 9381.92, 4728.67, 37967.99, 15310.65, 0.00, 0.00, 0.00
79, 11894.17, 51370.57, 49017.95, 41771.81, 12594.22, 30766.06, 73893.70, 48360.43, 18974.06, 15679.73, 28368.43, 44518.57, 9381.92, 4728.67, 37967.99, 15310.65, 0.00, 0.00, 0.00
80, 11894.17, 51370.57, 49017.95, 41771.81, 12594.22, 30766.06, 73893.70, 48360.43, 18983.18, 15664.88, 28338.03, 44419.66, 9354.56, 4693.84, 37904.27, 15256.25, 0.00, 0.00, 0.00
81, 11884.65, 51360.37, 49012.46, 41767.77, 12594.60, 30756.47, 73855.55, 48343.27, 18983.18, 15664.88, 28338.03, 44419.66, 9354.56, 4693.84, 37904.27, 15256.25, 0.00, 0.00, 0.00
82, 11884.65, 51360.37, 49012.46, 41767.77, 12594.60, 30756.47, 73855.55, 48343.27, 18966.17, 15673.51, 28366.11, 44514.93, 9378.88, 4713.83, 37960.14, 15299.61, 0.00, 0.00, 0.00
83, 11875.55, 51347.54, 49002.29, 41749.82, 12589.02, 30766.64, 73913.80, 48370.00, 18966.17, 15673.51, 28366.11, 44514.93, 9378.88, 4713.83, 37960.14, 15299.61, 0.00, 0.00, 0.00
84, 11875.55, 51347.54, 49002.29, 41749.82, 12589.02, 30766.64, 73913.80, 48370.00, 18973.21, 15649.80, 28337.21, 44440.41, 9351.54, 4675.18, 37908.42, 15256.61, 0.00, 0.00, 0.00
85, 11881.40, 51353.27, 49004.39, 41748.07, 12583.36, 30744.40, 73852.59, 48338.04, 18973.21, 15649.80, 28337.21, 44440.41, 9351.54, 4675.18, 37908.42, 15256.61, 0.91, 0.25, -0.22
86, 11881.40, 51353.27, 49004.39, 41748.07, 12583.36, 30744.40, 73852.59, 48338.04, 18972.43, 15665.89, 28361.32, 44505.81, 9394.39, 4705.20, 37952.72, 15290.11, 0.00, 0.00, 0.00
87, 11882.25, 51355.25, 49009.17, 41753.04, 12596.55, 30757.41, 73904.41, 48361.17, 18972.43, 15665.89, 28361.32, 44505.81, 9394.39, 4705.20, 37952.72, 15290.11, 0.00, 0.00, 0.00
88, 11882.25, 51355.25, 49009.17, 41753.04, 12596.55, 30757.41, 73904.41, 48361.17, 18977.05, 15655.74, 28341.05, 44450.42, 9375.73, 4685.01, 37910.08, 15256.61, 0.00, 0.00, 0.00
89, 11890.32, 51367.39, 49009.62, 41766.89, 12585.73, 30736.38, 73830.52, 48327.98, 18977.05, 15655.74, 28341.05, 44450.42, 9375.73, 4685.01, 37910.08, 15256.61, 0.00, 0.00, 0.00
90, 11890.32, 51367.39, 49009.62, 41766.89, 12585.73, 30736.38, 73830.52, 48327.98, 18972.90, 15672.95, 28364.43, 44489.65, 9409.10, 4714.50, 37945.77, 15286.27, 0.00, 0.00, 0.00
91, 11877.00, 51354.00, 49015.32, 41768.41, 12602.61, 30774.66, 73913.10, 48378.29, 18972.90, 15672.95, 28364.43, 44489.65, 9409.10, 4714.50, 37945.77, 15286.27, 0.00, 0.00, 0.00
92, 11877.00, 51354.00, 49015.32, 41768.41, 12602.61, 30774.66, 73913.10, 48378.29, 18973.26, 15662.72, 28351.33, 44469.06, 9390.37, 4693.84, 37920.70, 15274.35, 0.00, 0.00, 0.00
93, 11891.87, 51368.17, 49005.59, 41761.06, 12583.74, 30748.60, 73834.98, 48338.51, 18973.26, 15662.72, 28351.33, 44469.06, 9390.37, 4693.84, 37920.70, 15274.35, 0.00, 0.00, 0.00
94, 11891.87, 51368.17, 49005.59, 41761.06, 12583.74, 30748.60, 73834.98, 48338.51, 18982.93, 15677.49, 28359.22, 44473.51, 9419.18, 4713.98, 37937.93, 15287.50, 0.91, 0.25, -0.22
95, 11893.61, 51379.57, 49022.25, 41769.91, 12612.58, 30777.64, 73910.09, 48377.98, 18982.93, 15677.49, 28359.22, 44473.51, 9419.18, 4713.98, 37937.93, 15287.50, 0.00, 0.00, 0.00
96, 11893.61, 51379.57, 49022.25, 41769.91, 12612.58, 30777.64, 73910.09, 48377.98, 18988.59, 15678.00, 28356.25, 44479.19, 9415.07, 4706.47, 37932.36, 15291.05, 0.00, 0.00, 0.00
97, 11889.99, 51377.36, 49010.55, 41759.34, 12588.01, 30754.46, 73851.37, 48346.96, 18988.59, 15678.00, 28356.25, 44479.19, 9415.07, 4706.47, 37932.36, 15291.05, 0.00, 0.00, 0.00
98, 11889.99, 51377.36, 49010.55, 41759.34, 12588.01, 30754.46, 73851.37, 48346.96, 18982.24, 15667.70, 28350.97, 44454.62, 9422.36, 4702.29, 37924.79, 15282.80, 0.00, 0.00, 0.00
99, 11876.80, 51357.94, 49010.49, 41756.03, 12605.22, 30765.77, 73909.91, 48365.60, 18982.24, 15667.70, 28350.97, 44454.62, 9422.36, 4702.29, 37924.79, 15282.80, 0.00, 0.00, 0.00
100, 11876.80, 51357.94, 49010.49, 41756.03, 12605.22, 30765.77, 73909.91, 48365.60, 18974.95, 15656.30, 28351.98, 44480.64, 9413.48, 4690.29, 37924.56, 15286.69, 0.00, 0.00, 0.00
101, 11888.94, 51365.89, 49002.06, 41756.19, 12576.43, 30738.90, 73842.20, 48332.41, 18974.95, 15656.30, 28351.98, 44480.64, 9413.48, 4690.29, 37924.56, 15286.69, 0.00, 0.00, 0.00
102, 11888.94, 51365.89, 49002.06, 41756.19, 12576.43, 30738.90, 73842.20, 48332.41, 18980.63, 15661.22, 28347.91, 44432.92, 9428.52, 4700.88, 37914.05, 15272.59, 0.00, 0.00, 0.00
103, 11867.68, 51354.23, 49011.38, 41767.36, 12603.97, 30764.18, 73903.98, 48362.94, 18980.63, 15661.22, 28347.91, 44432.92, 9428.52, 4700.88, 37914.05, 15272.59, 0.00, 0.00, 0.00
104, 11867.68, 51354.23, 49011.38, 41767.36, 12603.97, 30764.18, 73903.98, 48362.94, 18968.32, 15661.42, 28359.54, 44498.88, 9431.32, 4704.48, 37944.97, 15299.86, 0.91, 0.25, -0.22
105, 11865.45, 51348.46, 48997.35, 41752.48, 12576.10, 30752.63, 73866.08, 48352.66, 18968.32, 15661.42, 28359.54, 44498.88, 9431.32, 4704.48, 37944.97, 15299.86, 0.00, 0.00, 0.00
106, 11865.45, 51348.46, 48997.35, 41752.48, 12576.10, 30752.63, 73866.08, 48352.66, 18968.16, 15653.98, 28347.60, 44438.38, 9432.95, 4696.30, 37923.40, 15278.07, 0.00, 0.00, 0.00
107, 11863.81, 51347.16, 49009.39, 41751.76, 12604.21, 30763.78, 73913.28, 48379.50, 18968.16, 15653.98, 28347.60, 44438.38, 9432.95, 4696.30, 37923.40, 15278.07, 0.00, 0.00, 0.00
108, 11863.81, 51347.16, 49009.39, 41751.76, 12604.21, 30763.78, 73913.28, 48379.50, 18973.05, 15653.93, 28354.71, 44499.98, 9439.97, 4696.30, 37954.20, 15300.30, 0.00, 0.00, 0.00
109, 11873.49, 51353.00, 49002.02, 41749.97, 12585.24, 30744.20, 73869.48, 48353.10, 18973.05, 15653.93, 28354.71, 44499.98, 9439.97, 4696.30, 37954.20, 15300.30, 0.00, 0.00, 0.00
110, 11873.49, 51353.00, 49002.02, 41749.97, 12585.24, 30744.20, 73869.48, 48353.10, 18974.04, 15656.28, 28334.17, 44416.54, 9435.45, 4690.25, 37916.40, 15266.73, 0.00, 0.00, 0.00
111, 11867.41, 51354.85, 49012.52, 41774.05, 12610.92, 30772.05, 73915.12, 48383.99, 18974.04, 15656.28, 28334.17, 44416.54, 9435.45, 4690.25, 37916.40, 15266.73, 0.00, 0.00, 0.00
112, 11867.41, 51354.85, 49012.52, 41774.05, 12610.92, 30772.05, 73915.12, 48383.99, 18974.33, 15669.62, 28355.42, 44508.40, 9455.08, 4713.31, 37961.53, 15309.33, 0.00, 0.00, 0.00
113, 11878.21, 51360.08, 49005.46, 41771.61, 12588.21, 30769.39, 73895.34, 48375.39, 18974.33, 15669.62, 28355.42, 44508.40, 9455.08, 4713.31, 37961.53, 15309.33, 0.00, 0.00, 0.00
114, 11878.21, 51360.08, 49005.46, 41771.61, 12588.21, 30769.39, 73895.34, 48375.39, 18975.45, 15666.43, 28340.09, 44423.84, 9440.73, 4704.62, 37911.60, 15271.27, 0.92, 0.25, -0.23
115, 11874.83, 51359.39, 49014.76, 41783.93, 12603.68, 30785.10, 73926.52, 48393.25, 18975.45, 15666.43, 28340.09, 44423.84, 9440.73, 4704.62, 37911.60, 15271.27, 0.00, 0.00, 0.00
116, 11874.83, 51359.39, 49014.76, 41783.93, 12603.68, 30785.10, 73926.52, 48393.25, 18977.61, 15674.58, 28363.04, 44522.89, 9464.35, 4721.49, 37960.61, 15310.70, 0.00, 0.00, 0.00
117, 11880.89, 51364.35, 49011.85, 41771.63, 12587.23, 30773.28, 73918.76, 48384.42, 18977.61, 15674.58, 28363.04, 44522.89, 9464.35, 4721.49, 37960.61, 15310.70, 0.00, 0.00, 0.00
118, 11880.89, 51364.35, 49011.85, 41771.63, 12587.23, 30773.28, 73918.76, 48384.42, 18984.25, 15661.11, 28335.30, 44415.62, 9446.61, 4690.40, 37904.69, 15259.38, 0.00, 0.00, 0.00
119, 11876.87, 51361.34, 49019.12, 41771.99, 12601.06, 30771.51, 73916.66, 48382.38, 18984.25, 15661.11, 28335.30, 44415.62, 9446.61, 4690.40, 37904.69, 15259.38, 0.00, 0.00, 0.00
120, 11876.87, 51361.34, 49019.12, 41771.99, 12601.06, 30771.51, 73916.66, 48382.38, 18975.67, 15671.03, 28355.76, 44509.18, 9471.75, 4713.40, 37963.99, 15308.02, 0.00, 0.00, 0.00
121, 11875.39, 51358.03, 49013.91, 41765.89, 12590.71, 30769.70, 73922.36, 48383.66, 18975.67, 15671.03, 28355.76, 44509.18, 9471.75, 4713.40, 37963.99, 15308.02, 0.00, 0.00, 0.00
122, 11875.39, 51358.03, 49013.91, 41765.89, 12590.71, 30769.70, 73922.36, 48383.66, 18975.13, 15657.29, 28325.61, 44401.43, 9445.09, 4692.12, 37906.32, 15264.79, 0.00, 0.00, 0.00
123, 11868.17, 51356.17, 49012.41, 41772.91, 12598.65, 30773.05, 73910.80, 48382.07, 18975.13, 15657.29, 28325.61, 44401.43, 9445.09, 4692.12, 37906.32, 15264.79, 0.00, 0.00, 0.00
124, 11868.17, 51356.17, 49012.41, 41772.91, 12598.65, 30773.05, 73910.80, 48382.07, 18967.27, 15672.91, 28354.01, 44505.59, 9463.59, 4722.43, 37966.36, 15317.23, 0.92, 0.25, -0.22
125, 11872.58, 51353.98, 49004.52, 41766.29, 12594.29, 30780.79, 73939.84, 48390.34, 18967.27, 15672.91, 28354.01, 44505.59, 9463.59, 4722.43, 37966.36, 15317.23, 0.00, 0.00, 0.00
126, 11872.58, 51353.98, 49004.52, 41766.29, 12594.29, 30780.79, 73939.84, 48390.34, 18978.42, 15661.20, 28331.53, 44412.63, 9429.51, 4699.41, 37905.92, 15266.33, 0.00, 0.00, 0.00
127, 11874.90, 51354.96, 49006.29, 41773.02, 12595.34, 30775.69, 73911.43, 48375.72, 18978.42, 15661.20, 28331.53, 44412.63, 9429.51, 4699.41, 37905.92, 15266.33, 0.00, 0.00, 0.00
128, 11874.90, 51354.96, 49006.29, 41773.02, 12595.34, 30775.69, 73911.43, 48375.72, 18977.79, 15677.78, 28365.03, 44506.99, 9439.28, 4732.07, 37965.69, 15312.96, 0.00, 0.00, 0.00
129, 11883.62, 51367.93, 49010.69, 41771.83, 12594.13, 30780.54, 73942.95, 48389.56, 18977.79, 15677.78, 28365.03, 44506.99, 9439.28, 4732.07, 37965.69, 15312.96, 0.00, 0.00, 0.00
130, 11883.62, 51367.93, 49010.69, 41771.83, 12594.13, 30780.54, 73942.95, 48389.56, 18987.09, 15665.55, 28342.17, 44416.51, 9392.22, 4701.51, 37913.72, 15268.30, 0.00, 0.00, 0.00
131, 11889.45, 51375.75, 49022.52, 41776.23, 12598.31, 30767.49, 73886.70, 48364.34, 18987.09, 15665.55, 28342.17, 44416.51, 9392.22, 4701.51, 37913.72, 15268.30, 0.00, 0.00, 0.00
132, 11889.45, 51375.75, 49022.52, 41776.23, 12598.31, 30767.49, 73886.70, 48364.34, 18975.09, 15680.51, 28370.33, 44493.49, 9395.38, 4730.48, 37969.49, 15310.45, 0.00, 0.00, 0.00
133, 11878.86, 51365.36, 49022.05, 41770.83, 12606.03, 30782.87, 73939.48, 48387.52, 18975.09, 15680.51, 28370.33, 44493.49, 9395.38, 4730.48, 37969.49, 15310.45, 0.00, 0.00, 0.00
134, 11878.86, 51365.36, 49022.05, 41770.83, 12606.03, 30782.87, 73939.48, 48387.52, 18975.67, 15667.16, 28344.49, 44425.01, 9338.74, 4701.40, 37924.14, 15274.24, 0.91, 0.25, -0.22
135, 11877.83, 51364.26, 49014.98, 41769.33, 12594.18, 30763.67, 73878.93, 48357.86, 18975.67, 15667.16, 28344.49, 44425.01, 9338.74, 4701.40, 37924.14, 15274.24, 0.00, 0.00, 0.00
136, 11877.83, 51364.26, 49014.98, 41769.33, 12594.18, 30763.67, 73878.93, 48357.86, 18963.67, 15680.42, 28359.33, 44479.75, 9330.98, 4727.64, 37964.46, 15303.88, 0.00, 0.00, 0.00
137, 11875.35, 51363.99, 49013.86, 41765.53, 12606.34, 30781.79, 73936.87, 48386.96, 18963.67, 15680.42, 28359.33, 44479.75, 9330.98, 4727.64, 37964.46, 15303.88, 0.00, 0.00, 0.00
138, 11875.35, 51363.99, 49013.86, 41765.53, 12606.34, 30781.79, 73936.87, 48386.96, 18969.41, 15667.70, 28335.89, 44426.97, 9279.77, 4701.78, 37922.24, 15267.36, 0.00, 0.00, 0.00
139, 11879.10, 51368.42, 49004.19, 41769.29, 12590.07, 30756.98, 73866.27, 48350.67, 18969.41, 15667.70, 28335.89, 44426.97, 9279.77, 4701.78, 37922.24, 15267.36, 0.00, 0.00, 0.00
140, 11879.10, 51368.42, 49004.19, 41769.29, 12590.07, 30756.98, 73866.27, 48350.67, 18956.80, 15678.99, 28353.03, 44464.66, 9279.37, 4718.86, 37950.42, 15286.54, 0.00, 0.00, 0.00
141, 11868.53, 51359.25, 49006.38, 41764.41, 12604.89, 30777.30, 73938.48, 48385.47, 18956.80, 15678.99, 28353.03, 44464.66, 9279.37, 4718.86, 37950.42, 15286.54, 0.00, 0.00, 0.00
142, 11868.53, 51359.25, 49006.38, 41764.41, 12604.89, 30777.30, 73938.48, 48385.47, 18957.50, 15664.97, 28345.95, 44455.02, 9248.62, 4700.95, 37933.48, 15276.59, 0.00, 0.00, 0.00
143, 11870.25, 51359.14, 49004.63, 41762.96, 12588.97, 30768.00, 73887.63, 48366.29, 18957.50, 15664.97, 28345.95, 44455.02, 9248.62, 4700.95, 37933.48, 15276.59, 0.00, 0.00, 0.00
144, 11870.25, 51359.14, 49004.63, 41762.96, 12588.97, 30768.00, 73887.63, 48366.29, 18956.29, 15669.80, 28357.72, 44467.48, 9257.76, 4715.35, 37949.89, 15293.49, 0.91, 0.25, -0.22
145, 11867.52, 51355.07, 49014.58, 41763.90, 12606.76, 30785.21, 73951.75, 48399.10, 18956.29, 15669.80, 28357.72, 44467.48, 9257.76, 4715.35, 37949.89, 15293.49, 0.00, 0.00, 0.00
146, 11867.52, 51355.07, 49014.58, 41763.90, 12606.76, 30785.21, 73951.75, 48399.10, 18961.90, 15662.07, 28349.03, 44464.05, 9238.00, 4702.47, 37937.50, 15286.02, 0.00, 0.00, 0.00
