%OpenBCI Raw EEG Data
%
%Sample Rate = 250.0 Hz
%First Column = SampleIndex
%Other Columns = EEG data in microvolts followed by Accel Data (in G) interleaved with Aux Data
0, 0.00, 0.00, 0.00, 0.00, 0.00, 0.00, 0.00, 0.00, -912.06, -28.48, 26582.46, -3027.61, -445.56, 8868.12, 6349.48, 7428.49, 0.00, 0.00, 0.00
1, -1663.13, 13680.97, 5528.52, -978.65, 10897.15, 6166.00, 9631.14, 129.08, -912.06, -28.48, 26582.46, -3027.61, -445.56, 8868.12, 6349.48, 7428.49, 0.79, 0.53, -0.23
2, -1663.13, 13680.97, 5528.52, -978.65, 10897.15, 6166.00, 9631.14, 129.08, -1384.51, 773.33, 56293.49, -4557.12, -215.92, 18661.36, 13110.44, 15042.10, 0.00, 0.00, 0.00
3, -3321.63, 27359.58, 11062.50, -1966.42, 21778.71, 12332.98, 19233.36, 263.57, -1384.51, 773.33, 56293.49, -4557.12, -215.92, 18661.36, 13110.44, 15042.10, 0.00, 0.00, 0.00
4, -3321.63, 27359.58, 11062.50, -1966.42, 21778.71, 12332.98, 19233.36, 263.57, -1376.69, 777.51, 56208.62, -4547.26, -210.04, 18682.91, 13113.41, 14931.41, 0.00, 0.00, 0.00
5, -3322.07, 27359.74, 11019.10, -1952.47, 21788.99, 12346.61, 19230.68, 272.02, -1376.69, 777.51, 56208.62, -4547.26, -210.04, 18682.91, 13113.41, 14931.41, 0.00, 0.00, 0.00
6, -3322.07, 27359.74, 11019.10, -1952.47, 21788.99, 12346.61, 19230.68, 272.02, -1391.26, 786.09, 56278.18, -4548.02, -213.50, 18677.94, 13114.59, 15030.07, 0.00, 0.00, 0.00
7, -3326.54, 27378.85, 11066.04, -1962.71, 21782.18, 12342.95, 19250.80, 276.49, -1391.26, 786.09, 56278.18, -4548.02, -213.50, 18677.94, 13114.59, 15030.07, 0.00, 0.00, 0.00
8, -3326.54, 27378.85, 11066.04, -1962.71, 21782.18, 12342.95, 19250.80, 276.49, -1393.14, 779.61, 56229.36, -4553.36, -217.88, 18682.35, 13113.14, 14956.58, 0.78, 0.52, -0.21
9, -3330.63, 27360.39, 11027.17, -1967.69, 21782.33, 12342.14, 19238.35, 276.69, -1393.14, 779.61, 56229.36, -4553.36, -217.88, 18682.35, 13113.14, 14956.58, 0.00, 0.00, 0.00
10, -3330.63, 27360.39, 11027.17, -1967.69, 21782.33, 12342.14, 19238.35, 276.69, -1400.05, 765.30, 56259.74, -4561.03, -225.44, 18669.61, 13112.63, 15005.75, 0.00, 0.00, 0.00
11, -3339.17, 27367.81, 11060.45, -1978.26, 21773.95, 12321.38, 19244.14, 254.77, -1400.05, 765.30, 56259.74, -4561.03, -225.44, 18669.61, 13112.63, 15005.75, 0.00, 0.00, 0.00
12, -3339.17, 27367.81, 11060.45, -1978.26, 21773.95, 12321.38, 19244.14, 254.77, -1402.24, 759.45, 56218.84, -4563.56, -233.89, 18674.14, 13099.33, 14948.35, 0.00, 0.00, 0.00
13, -3335.26, 27356.03, 11030.99, -1981.46, 21768.97, 12313.58, 19211.93, 242.70, -1402.24, 759.45, 56218.84, -4563.56, -233.89, 18674.14, 13099.33, 14948.35, 0.00, 0.00, 0.00
14, -3335.26, 27356.03, 11030.99, -1981.46, 21768.97, 12313.58, 19211.93, 242.70, -1399.60, 760.72, 56262.58, -4568.38, -230.69, 18661.94, 13106.77, 14997.06, 0.00, 0.00, 0.00
15, -3344.38, 27376.24, 11096.90, -1986.85, 21770.40, 12300.43, 19257.66, 227.85, -1399.60, 760.72, 56262.58, -4568.38, -230.69, 18661.94, 13106.77, 14997.06, 0.00, 0.00, 0.00
16, -3344.38, 27376.24, 11096.90, -1986.85, 21770.40, 12300.43, 19257.66, 227.85, -1399.80, 752.09, 56251.58, -4570.44, -234.49, 18666.86, 13102.37, 14980.14, 0.00, 0.00, 0.00
17, -3322.63, 27354.69, 11050.41, -1966.19, 21777.91, 12331.35, 19217.02, 256.31, -1399.80, 752.09, 56251.58, -4570.44, -234.49, 18666.86, 13102.37, 14980.14, 0.00, 0.00, 0.00
18, -3322.63, 27354.69, 11050.41, -1966.19, 21777.91, 12331.35, 19217.02, 256.31, -1383.39, 778.24, 56260.37, -4544.47, -213.95, 18692.58, 13122.22, 15000.59, 0.78, 0.53, -0.21
19, -3328.98, 27382.18, 11108.66, -1965.08, 21780.86, 12335.28, 19261.88, 260.80, -1383.39, 778.24, 56260.37, -4544.47, -213.95, 18692.58, 13122.22, 15000.59, 0.00, 0.00, 0.00
20, -3328.98, 27382.18, 11108.66, -1965.08, 21780.86, 12335.28, 19261.88, 260.80, -1393.25, 762.35, 56278.20, -4550.93, -222.71, 18694.10, 13113.59, 15034.36, 0.00, 0.00, 0.00
21, -3317.27, 27358.00, 11067.31, -1957.32, 21783.61, 12345.65, 19211.66, 263.59, -1393.25, 762.35, 56278.20, -4550.93, -222.71, 18694.10, 13113.59, 15034.36, 0.00, 0.00, 0.00
22, -3317.27, 27358.00, 11067.31, -1957.32, 21783.61, 12345.65, 19211.66, 263.59, -1385.34, 766.75, 56263.56, -4553.30, -214.84, 18684.36, 13121.35, 15026.85, 0.00, 0.00, 0.00
23, -3326.07, 27388.26, 11129.60, -1960.85, 21790.69, 12334.14, 19261.50, 253.07, -1385.34, 766.75, 56263.56, -4553.30, -214.84, 18684.36, 13121.35, 15026.85, 0.00, 0.00, 0.00
24, -3326.07, 27388.26, 11129.60, -1960.85, 21790.69, 12334.14, 19261.50, 253.07, -1385.79, 772.66, 56302.19, -4542.95, -217.55, 18700.68, 13118.31, 15076.47, 0.00, 0.00, 0.00
25, -3312.82, 27368.39, 11100.17, -1949.70, 21784.79, 12353.99, 19216.40, 277.74, -1385.79, 772.66, 56302.19, -4542.95, -217.55, 18700.68, 13118.31, 15076.47, 0.00, 0.00, 0.00
26, -3312.82, 27368.39, 11100.17, -1949.70, 21784.79, 12353.99, 19216.40, 277.74, -1377.87, 782.09, 56259.94, -4538.97, -208.54, 18703.04, 13127.80, 15025.87, 0.00, 0.00, 0.00
27, -3321.74, 27393.11, 11146.17, -1958.10, 21796.59, 12340.64, 19275.27, 265.49, -1377.87, 782.09, 56259.94, -4538.97, -208.54, 18703.04, 13127.80, 15025.87, 0.00, 0.00, 0.00
28, -3321.74, 27393.11, 11146.17, -1958.10, 21796.59, 12340.64, 19275.27, 265.49, -1392.45, 766.40, 56302.84, -4548.62, -217.82, 18697.66, 13119.65, 15084.54, 0.78, 0.53, -0.21
29, -3312.71, 27369.64, 11102.49, -1951.69, 21781.80, 12351.57, 19228.78, 283.24, -1392.45, 766.40, 56302.84, -4548.62, -217.82, 18697.66, 13119.65, 15084.54, 0.00, 0.00, 0.00
30, -3312.71, 27369.64, 11102.49, -1951.69, 21781.80, 12351.57, 19228.78, 283.24, -1386.77, 768.16, 56236.27, -4549.03, -212.57, 18696.88, 13125.48, 14994.62, 0.00, 0.00, 0.00
31, -3324.82, 27395.71, 11137.40, -1962.10, 21801.29, 12333.18, 19278.31, 258.16, -1386.77, 768.16, 56236.27, -4549.03, -212.57, 18696.88, 13125.48, 14994.62, 0.00, 0.00, 0.00
32, -3324.82, 27395.71, 11137.40, -1962.10, 21801.29, 12333.18, 19278.31, 258.16, -1390.55, 753.63, 56304.85, -4562.19, -223.00, 18685.52, 13115.20, 15088.83, 0.00, 0.00, 0.00
33, -3327.33, 27372.75, 11126.32, -1966.17, 21785.57, 12337.56, 19234.10, 272.69, -1390.55, 753.63, 56304.85, -4562.19, -223.00, 18685.52, 13115.20, 15088.83, 0.00, 0.00, 0.00
34, -3327.33, 27372.75, 11126.32, -1966.17, 21785.57, 12337.56, 19234.10, 272.69, -1387.28, 759.94, 56238.44, -4555.02, -216.05, 18697.59, 13127.60, 14995.67, 0.00, 0.00, 0.00
35, -3326.01, 27387.86, 11149.43, -1964.03, 21797.44, 12330.29, 19290.05, 270.28, -1387.28, 759.94, 56238.44, -4555.02, -216.05, 18697.59, 13127.60, 14995.67, 0.00, 0.00, 0.00
36, -3326.01, 27387.86, 11149.43, -1964.03, 21797.44, 12330.29, 19290.05, 270.28, -1385.00, 753.83, 56305.72, -4562.06, -222.40, 18686.79, 13121.30, 15086.78, 0.00, 0.00, 0.00
37, -3328.49, 27364.88, 11114.78, -1969.50, 21780.63, 12327.46, 19235.87, 267.06, -1385.00, 753.83, 56305.72, -4562.06, -222.40, 18686.79, 13121.30, 15086.78, 0.00, 0.00, 0.00
38, -3328.49, 27364.88, 11114.78, -1969.50, 21780.63, 12327.46, 19235.87, 267.06, -1389.90, 750.06, 56225.95, -4563.00, -225.31, 18688.45, 13115.51, 14969.01, 0.78, 0.53, -0.21
39, -3327.97, 27385.09, 11127.86, -1957.14, 21791.50, 12339.53, 19272.48, 283.71, -1389.90, 750.06, 56225.95, -4563.00, -225.31, 18688.45, 13115.51, 14969.01, 0.00, 0.00, 0.00
40, -3327.97, 27385.09, 11127.86, -1957.14, 21791.50, 12339.53, 19272.48, 283.71, -1381.14, 761.95, 56308.58, -4550.55, -218.51, 18706.89, 13127.45, 15086.24, 0.00, 0.00, 0.00
41, -3327.50, 27374.05, 11112.57, -1955.73, 21784.03, 12338.41, 19244.43, 279.89, -1381.14, 761.95, 56308.58, -4550.55, -218.51, 18706.89, 13127.45, 15086.24, 0.00, 0.00, 0.00
42, -3327.50, 27374.05, 11112.57, -1955.73, 21784.03, 12338.41, 19244.43, 279.89, -1391.17, 750.97, 56218.79, -4564.52, -226.40, 18694.80, 13116.70, 14966.97, 0.00, 0.00, 0.00
43, -3338.08, 27371.12, 11108.12, -1965.30, 21786.60, 12325.76, 19264.81, 269.14, -1391.17, 750.97, 56218.79, -4564.52, -226.40, 18694.80, 13116.70, 14966.97, 0.00, 0.00, 0.00
44, -3338.08, 27371.12, 11108.12, -1965.30, 21786.60, 12325.76, 19264.81, 269.14, -1388.11, 753.14, 56300.13, -4567.82, -228.30, 18691.22, 13118.86, 15086.33, 0.00, 0.00, 0.00
45, -3337.14, 27371.14, 11130.56, -1967.27, 21775.11, 12331.32, 19243.29, 272.29, -1388.11, 753.14, 56300.13, -4567.82, -228.30, 18691.22, 13118.86, 15086.33, 0.00, 0.00, 0.00
46, -3337.14, 27371.14, 11130.56, -1967.27, 21775.11, 12331.32, 19243.29, 272.29, -1398.97, 735.17, 56222.77, -4572.56, -236.19, 18689.03, 13106.48, 14975.06, 0.00, 0.00, 0.00
47, -3344.11, 27367.32, 11131.55, -1970.84, 21772.99, 12316.30, 19247.29, 260.04, -1398.97, 735.17, 56222.77, -4572.56, -236.19, 18689.03, 13106.48, 14975.06, 0.00, 0.00, 0.00
48, -3344.11, 27367.32, 11131.55, -1970.84, 21772.99, 12316.30, 19247.29, 260.04, -1399.04, 740.80, 56301.14, -4568.56, -234.16, 18687.11, 13107.58, 15077.39, 0.78, 0.52, -0.22
49, -3330.32, 27381.24, 11163.85, -1964.96, 21776.81, 12330.00, 19235.71, 265.96, -1399.04, 740.80, 56301.14, -4568.56, -234.16, 18687.11, 13107.58, 15077.39, 0.00, 0.00, 0.00
50, -3330.32, 27381.24, 11163.85, -1964.96, 21776.81, 12330.00, 19235.71, 265.96, -1386.97, 746.30, 56227.69, -4556.76, -221.44, 18706.93, 13114.01, 14964.38, 0.00, 0.00, 0.00
51, -3322.88, 27386.54, 11144.49, -1960.11, 21782.11, 12320.71, 19244.38, 262.70, -1386.97, 746.30, 56227.69, -4556.76, -221.44, 18706.93, 13114.01, 14964.38, 0.00, 0.00, 0.00
52, -3322.88, 27386.54, 11144.49, -1960.11, 21782.11, 12320.71, 19244.38, 262.70, -1394.30, 752.14, 56314.86, -4566.95, -233.24, 18687.53, 13098.79, 15068.29, 0.00, 0.00, 0.00
53, -3334.66, 27396.17, 11206.00, -1969.14, 21772.12, 12310.33, 19244.40, 254.14, -1394.30, 752.14, 56314.86, -4566.95, -233.24, 18687.53, 13098.79, 15068.29, 0.00, 0.00, 0.00
54, -3334.66, 27396.17, 11206.00, -1969.14, 21772.12, 12310.33, 19244.40, 254.14, -1397.72, 735.48, 56251.98, -4569.43, -232.28, 18699.42, 13103.35, 14980.45, 0.00, 0.00, 0.00
55, -3333.74, 27377.09, 11182.17, -1959.80, 21781.86, 12321.44, 19237.63, 268.02, -1397.72, 735.48, 56251.98, -4569.43, -232.28, 18699.42, 13103.35, 14980.45, 0.00, 0.00, 0.00
56, -3333.74, 27377.09, 11182.17, -1959.80, 21781.86, 12321.44, 19237.63, 268.02, -1384.96, 737.99, 56312.36, -4564.54, -226.04, 18698.55, 13110.06, 15062.95, 0.00, 0.00, 0.00
57, -3327.64, 27401.40, 11244.07, -1959.96, 21781.21, 12322.90, 19260.01, 272.69, -1384.96, 737.99, 56312.36, -4564.54, -226.04, 18698.55, 13110.06, 15062.95, 0.00, 0.00, 0.00
58, -3327.64, 27401.40, 11244.07, -1959.96, 21781.21, 12322.90, 19260.01, 272.69, -1371.77, 742.73, 56268.26, -4555.82, -217.26, 18722.16, 13117.17, 14997.28, 0.78, 0.53, -0.23
59, -3313.65, 27388.75, 11199.27, -1949.52, 21792.99, 12334.30, 19242.73, 289.01, -1371.77, 742.73, 56268.26, -4555.82, -217.26, 18722.16, 13117.17, 14997.28, 0.00, 0.00, 0.00
60, -3313.65, 27388.75, 11199.27, -1949.52, 21792.99, 12334.30, 19242.73, 289.01, -1369.60, 739.49, 56305.45, -4557.59, -218.02, 18712.92, 13115.80, 15048.71, 0.00, 0.00, 0.00
61, -3320.98, 27410.05, 11253.34, -1957.10, 21780.25, 12326.61, 19278.96, 285.81, -1369.60, 739.49, 56305.45, -4557.59, -218.02, 18712.92, 13115.80, 15048.71, 0.00, 0.00, 0.00
62, -3320.98, 27410.05, 11253.34, -1957.10, 21780.25, 12326.61, 19278.96, 285.81, -1375.91, 742.66, 56277.60, -4552.54, -223.76, 18722.31, 13112.65, 15014.20, 0.00, 0.00, 0.00
63, -3315.93, 27389.74, 11210.88, -1957.54, 21779.70, 12327.48, 19244.22, 285.57, -1375.91, 742.66, 56277.60, -4552.54, -223.76, 18722.31, 13112.65, 15014.20, 0.00, 0.00, 0.00
64, -3315.93, 27389.74, 11210.88, -1957.54, 21779.70, 12327.48, 19244.22, 285.57, -1382.63, 733.47, 56292.78, -4563.76, -236.46, 18704.01, 13102.59, 15037.49, 0.00, 0.00, 0.00
65, -3332.94, 27402.28, 11256.58, -1971.56, 21775.20, 12312.70, 19275.90, 275.04, -1382.63, 733.47, 56292.78, -4563.76, -236.46, 18704.01, 13102.59, 15037.49, 0.00, 0.00, 0.00
66, -3332.94, 27402.28, 11256.58, -1971.56, 21775.20, 12312.70, 19275.90, 275.04, -1389.38, 726.36, 56280.77, -4566.66, -233.78, 18715.47, 13109.48, 15023.28, 0.00, 0.00, 0.00
67, -3324.31, 27382.25, 11218.07, -1957.92, 21782.62, 12340.96, 19251.04, 306.13, -1389.38, 726.36, 56280.77, -4566.66, -233.78, 18715.47, 13109.48, 15023.28, 0.79, 0.54, -0.23
68, -3324.31, 27382.25, 11218.07, -1957.92, 21782.62, 12340.96, 19251.04, 306.13, -1381.47, 742.48, 56284.73, -4560.07, -230.92, 18722.02, 13115.40, 15031.55, 0.00, 0.00, 0.00
69, -3348.45, 27396.46, 11266.35, -1981.95, 21769.71, 12305.26, 19287.14, 274.77, -1381.47, 742.48, 56284.73, -4560.07, -230.92, 18722.02, 13115.40, 15031.55, 0.00, 0.00, 0.00
70, -3348.45, 27396.46, 11266.35, -1981.95, 21769.71, 12305.26, 19287.14, 274.77, -1409.08, 698.85, 56290.21, -4597.19, -258.50, 18685.90, 13090.79, 15037.45, 0.00, 0.00, 0.00
71, -3350.24, 27354.33, 11217.31, -1989.86, 21766.33, 12296.36, 19224.27, 266.77, -1409.08, 698.85, 56290.21, -4597.19, -258.50, 18685.90, 13090.79, 15037.45, 0.00, 0.00, 0.00
72, -3350.24, 27354.33, 11217.31, -1989.86, 21766.33, 12296.36, 19224.27, 266.77, -1404.25, 703.81, 56263.38, -4594.00, -253.40, 18688.03, 13094.39, 14995.90, 0.00, 0.00, 0.00
73, -3353.52, 27383.34, 11273.73, -1994.83, 21771.58, 12282.01, 19271.99, 244.04, -1404.25, 703.81, 56263.38, -4594.00, -253.40, 18688.03, 13094.39, 14995.90, 0.00, 0.00, 0.00
74, -3353.52, 27383.34, 11273.73, -1994.83, 21771.58, 12282.01, 19271.99, 244.04, -1404.36, 705.13, 56309.00, -4588.37, -250.63, 18699.71, 13095.71, 15048.40, 0.00, 0.00, 0.00
75, -3328.31, 27367.99, 11232.49, -1970.55, 21779.07, 12319.68, 19227.28, 282.68, -1404.36, 705.13, 56309.00, -4588.37, -250.63, 18699.71, 13095.71, 15048.40, 0.00, 0.00, 0.00
76, -3328.31, 27367.99, 11232.49, -1970.55, 21779.07, 12319.68, 19227.28, 282.68, -1378.28, 738.61, 56256.07, -4556.49, -229.64, 18734.52, 13117.32, 14981.79, 0.00, 0.00, 0.00
77, -3336.49, 27402.25, 11270.60, -1968.34, 21780.63, 12314.67, 19278.78, 267.62, -1378.28, 738.61, 56256.07, -4556.49, -229.64, 18734.52, 13117.32, 14981.79, 0.78, 0.53, -0.22
78, -3336.49, 27402.25, 11270.60, -1968.34, 21780.63, 12314.67, 19278.78, 267.62, -1400.31, 719.44, 56333.34, -4578.42, -254.27, 18714.00, 13093.47, 15078.71, 0.00, 0.00, 0.00
79, -3338.57, 27378.12, 11267.67, -1973.66, 21768.41, 12319.92, 19219.64, 263.73, -1400.31, 719.44, 56333.34, -4578.42, -254.27, 18714.00, 13093.47, 15078.71, 0.00, 0.00, 0.00
80, -3338.57, 27378.12, 11267.67, -1973.66, 21768.41, 12319.92, 19219.64, 263.73, -1385.45, 728.69, 56270.09, -4564.32, -237.51, 18725.55, 13112.25, 14997.98, 0.00, 0.00, 0.00
81, -3334.88, 27398.03, 11293.55, -1970.48, 21784.84, 12319.05, 19275.56, 273.65, -1385.45, 728.69, 56270.09, -4564.32, -237.51, 18725.55, 13112.25, 14997.98, 0.00, 0.00, 0.00
82, -3334.88, 27398.03, 11293.55, -1970.48, 21784.84, 12319.05, 19275.56, 273.65, -1382.88, 728.20, 56343.27, -4566.62, -240.35, 18724.32, 13110.66, 15105.20, 0.00, 0.00, 0.00
83, -3326.97, 27382.41, 11260.45, -1965.66, 21781.71, 12331.79, 19231.35, 286.04, -1382.88, 728.20, 56343.27, -4566.62, -240.35, 18724.32, 13110.66, 15105.20, 0.00, 0.00, 0.00
84, -3326.97, 27382.41, 11260.45, -1965.66, 21781.71, 12331.79, 19231.35, 286.04, -1381.05, 734.01, 56256.88, -4559.71, -233.44, 18729.89, 13118.17, 14996.37, 0.00, 0.00, 0.00
85, -3334.16, 27393.65, 11265.03, -1971.67, 21782.91, 12315.79, 19276.95, 269.07, -1381.05, 734.01, 56256.88, -4559.71, -233.44, 18729.89, 13118.17, 14996.37, 0.00, 0.00, 0.00
86, -3334.16, 27393.65, 11265.03, -1971.67, 21782.91, 12315.79, 19276.95, 269.07, -1391.33, 725.34, 56359.54, -4570.64, -245.42, 18716.28, 13103.42, 15128.93, 0.00, 0.00, 0.00
87, -3328.31, 27390.88, 11285.02, -1967.60, 21771.94, 12327.79, 19240.96, 284.47, -1391.33, 725.34, 56359.54, -4570.64, -245.42, 18716.28, 13103.42, 15128.93, 0.78, 0.54, -0.21
88, -3328.31, 27390.88, 11285.02, -1967.60, 21771.94, 12327.79, 19240.96, 284.47, -1380.49, 729.74, 56289.45, -4563.67, -235.41, 18725.84, 13112.07, 15018.14, 0.00, 0.00, 0.00
89, -3326.70, 27405.07, 11297.29, -1969.95, 21778.13, 12311.12, 19273.98, 273.90, -1380.49, 729.74, 56289.45, -4563.67, -235.41, 18725.84, 13112.07, 15018.14, 0.00, 0.00, 0.00
90, -3326.70, 27405.07, 11297.29, -1969.95, 21778.13, 12311.12, 19273.98, 273.90, -1382.21, 714.43, 56381.76, -4573.88, -248.80, 18707.74, 13098.12, 15133.25, 0.00, 0.00, 0.00
91, -3326.12, 27392.78, 11302.47, -1984.37, 21764.54, 12309.06, 19234.61, 273.05, -1382.21, 714.43, 56381.76, -4573.88, -248.80, 18707.74, 13098.12, 15133.25, 0.00, 0.00, 0.00
92, -3326.12, 27392.78, 11302.47, -1984.37, 21764.54, 12309.06, 19234.61, 273.05, -1373.38, 716.53, 56287.91, -4561.25, -235.14, 18725.29, 13114.37, 15005.35, 0.00, 0.00, 0.00
93, -3328.73, 27394.77, 11279.56, -1967.00, 21790.69, 12312.19, 19277.26, 274.12, -1373.38, 716.53, 56287.91, -4561.25, -235.14, 18725.29, 13114.37, 15005.35, 0.00, 0.00, 0.00
94, -3328.73, 27394.77, 11279.56, -1967.00, 21790.69, 12312.19, 19277.26, 274.12, -1393.52, 708.82, 56384.26, -4572.23, -244.80, 18710.22, 13107.31, 15130.41, 0.00, 0.00, 0.00
95, -3332.56, 27394.70, 11298.65, -1973.12, 21772.32, 12316.12, 19253.48, 283.76, -1393.52, 708.82, 56384.26, -4572.23, -244.80, 18710.22, 13107.31, 15130.41, 0.00, 0.00, 0.00
96, -3332.56, 27394.70, 11298.65, -1973.12, 21772.32, 12316.12, 19253.48, 283.76, -1373.60, 729.94, 56280.64, -4545.43, -227.76, 18742.79, 13126.82, 15002.54, 0.00, 0.00, 0.00
97, -3315.32, 27395.88, 11242.23, -1949.25, 21790.51, 12332.44, 19274.13, 305.15, -1373.60, 729.94, 56280.64, -4545.43, -227.76, 18742.79, 13126.82, 15002.54, 0.78, 0.53, -0.23
98, -3315.32, 27395.88, 11242.23, -1949.25, 21790.51, 12332.44, 19274.13, 305.15, -1378.86, 732.71, 56361.89, -4552.78, -233.64, 18733.02, 13121.43, 15114.43, 0.00, 0.00, 0.00
99, -3328.02, 27401.92, 11264.00, -1966.42, 21785.19, 12312.97, 19265.57, 283.40, -1378.86, 732.71, 56361.89, -4552.78, -233.64, 18733.02, 13121.43, 15114.43, 0.00, 0.00, 0.00
100, -3328.02, 27401.92, 11264.00, -1966.42, 21785.19, 12312.97, 19265.57, 283.40, -1388.51, 717.13, 56287.77, -4564.56, -240.35, 18725.73, 13112.85, 15010.87, 0.00, 0.00, 0.00
101, -3319.59, 27387.44, 11216.42, -1960.23, 21787.32, 12319.57, 19258.69, 292.56, -1388.51, 717.13, 56287.77, -4564.56, -240.35, 18725.73, 13112.85, 15010.87, 0.00, 0.00, 0.00
102, -3319.59, 27387.44, 11216.42, -1960.23, 21787.32, 12319.57, 19258.69, 292.56, -1377.54, 732.31, 56347.07, -4553.01, -234.20, 18736.97, 13120.29, 15094.02, 0.00, 0.00, 0.00
103, -3319.90, 27400.55, 11236.29, -1960.31, 21779.63, 12322.90, 19267.81, 296.47, -1377.54, 732.31, 56347.07, -4553.01, -234.20, 18736.97, 13120.29, 15094.02, 0.00, 0.00, 0.00
104, -3319.90, 27400.55, 11236.29, -1960.31, 21779.63, 12322.90, 19267.81, 296.47, -1379.50, 720.84, 56290.88, -4556.29, -238.63, 18740.24, 13107.29, 15010.78, 0.00, 0.00, 0.00
105, -3316.33, 27394.59, 11199.59, -1956.74, 21780.70, 12316.97, 19247.51, 288.65, -1379.50, 720.84, 56290.88, -4556.29, -238.63, 18740.24, 13107.29, 15010.78, 0.00, 0.00, 0.00
106, -3316.33, 27394.59, 11199.59, -1956.74, 21780.70, 12316.97, 19247.51, 288.65, -1370.12, 732.82, 56349.33, -4553.48, -234.40, 18732.08, 13110.33, 15087.36, 0.00, 0.00, 0.00
107, -3317.40, 27428.88, 11264.23, -1956.36, 21777.97, 12313.42, 19275.83, 283.24, -1370.12, 732.82, 56349.33, -4553.48, -234.40, 18732.08, 13110.33, 15087.36, 0.78, 0.53, -0.21
108, -3317.40, 27428.88, 11264.23, -1956.36, 21777.97, 12313.42, 19275.83, 283.24, -1366.12, 735.95, 56316.69, -4544.44, -232.82, 18753.13, 13113.83, 15035.84, 0.00, 0.00, 0.00
109, -3300.26, 27416.49, 11209.24, -1944.56, 21788.86, 12329.51, 19249.41, 297.95, -1366.12, 735.95, 56316.69, -4544.44, -232.82, 18753.13, 13113.83, 15035.84, 0.00, 0.00, 0.00
110, -3300.26, 27416.49, 11209.24, -1944.56, 21788.86, 12329.51, 19249.41, 297.95, -1363.59, 737.79, 56341.46, -4549.36, -231.09, 18745.67, 13118.75, 15072.65, 0.00, 0.00, 0.00
111, -3314.58, 27426.37, 11252.40, -1958.55, 21770.46, 12311.79, 19274.06, 278.57, -1363.59, 737.79, 56341.46, -4549.36, -231.09, 18745.67, 13118.75, 15072.65, 0.00, 0.00, 0.00
112, -3314.58, 27426.37, 11252.40, -1958.55, 21770.46, 12311.79, 19274.06, 278.57, -1373.92, 720.35, 56321.12, -4562.35, -242.99, 18737.71, 13100.85, 15032.84, 0.00, 0.00, 0.00
113, -3321.54, 27397.96, 11218.79, -1967.62, 21776.19, 12298.80, 19230.23, 264.42, -1373.92, 720.35, 56321.12, -4562.35, -242.99, 18737.71, 13100.85, 15032.84, 0.00, 0.00, 0.00
114, -3321.54, 27397.96, 11218.79, -1967.62, 21776.19, 12298.80, 19230.23, 264.42, -1368.62, 720.33, 56343.63, -4565.68, -235.27, 18728.62, 13106.79, 15048.78, 0.00, 0.00, 0.00
115, -3323.06, 27418.46, 11262.04, -1967.89, 21789.49, 12301.17, 19264.50, 276.56, -1368.62, 720.33, 56343.63, -4565.68, -235.27, 18728.62, 13106.79, 15048.78, 0.00, 0.00, 0.00
116, -3323.06, 27418.46, 11262.04, -1967.89, 21789.49, 12301.17, 19264.50, 276.56, -1368.08, 723.73, 56329.81, -4556.54, -237.08, 18745.87, 13109.28, 15036.62, 0.00, 0.00, 0.00
117, -3317.24, 27391.88, 11206.74, -1957.36, 21786.20, 12323.46, 19229.14, 298.91, -1368.08, 723.73, 56329.81, -4556.54, -237.08, 18745.87, 13109.28, 15036.62, 0.79, 0.53, -0.22
118, -3317.24, 27391.88, 11206.74, -1957.36, 21786.20, 12323.46, 19229.14, 298.91, -1371.03, 730.37, 56318.66, -4559.26, -236.68, 18738.09, 13107.20, 15027.17, 0.00, 0.00, 0.00
119, -3333.25, 27411.60, 11260.34, -1968.32, 21782.33, 12305.17, 19280.12, 287.51, -1371.03, 730.37, 56318.66, -4559.26, -236.68, 18738.09, 13107.20, 15027.17, 0.00, 0.00, 0.00
120, -3333.25, 27411.60, 11260.34, -1968.32, 21782.33, 12305.17, 19280.12, 287.51, -1364.44, 725.16, 56334.71, -4553.97, -236.17, 18754.48, 13108.20, 15055.08, 0.00, 0.00, 0.00
121, -3312.01, 27385.94, 11186.29, -1954.01, 21785.84, 12324.68, 19233.50, 309.06, -1364.44, 725.16, 56334.71, -4553.97, -236.17, 18754.48, 13108.20, 15055.08, 0.00, 0.00, 0.00
122, -3312.01, 27385.94, 11186.29, -1954.01, 21785.84, 12324.68, 19233.50, 309.06, -1359.39, 723.93, 56307.24, -4554.61, -233.87, 18742.59, 13110.86, 15003.38, 0.00, 0.00, 0.00
123, -3323.93, 27419.49, 11233.16, -1964.90, 21786.76, 12303.94, 19286.94, 290.91, -1359.39, 723.93, 56307.24, -4554.61, -233.87, 18742.59, 13110.86, 15003.38, 0.00, 0.00, 0.00
124, -3323.93, 27419.49, 11233.16, -1964.90, 21786.76, 12303.94, 19286.94, 290.91, -1375.62, 704.68, 56378.72, -4569.70, -251.70, 18727.05, 13091.82, 15079.42, 0.00, 0.00, 0.00
125, -3321.40, 27401.74, 11218.52, -1966.91, 21773.95, 12312.86, 19231.82, 299.09, -1375.62, 704.68, 56378.72, -4569.70, -251.70, 18727.05, 13091.82, 15079.42, 0.00, 0.00, 0.00
126, -3321.40, 27401.74, 11218.52, -1966.91, 21773.95, 12312.86, 19231.82, 299.09, -1359.99, 719.17, 56316.98, -4552.00, -233.35, 18744.04, 13111.17, 14999.32, 0.00, 0.00, 0.00
127, -3330.10, 27429.88, 11254.91, -1970.40, 21787.36, 12304.41, 19291.50, 294.28, -1359.99, 719.17, 56316.98, -4552.00, -233.35, 18744.04, 13111.17, 14999.32, 0.78, 0.53, -0.22
128, -3330.10, 27429.88, 11254.91, -1970.40, 21787.36, 12304.41, 19291.50, 294.28, -1376.76, 716.78, 56403.55, -4562.19, -250.21, 18744.04, 13095.10, 15107.66, 0.00, 0.00, 0.00
129, -3328.78, 27406.99, 11241.70, -1968.18, 21774.98, 12320.53, 19228.06, 309.26, -1376.76, 716.78, 56403.55, -4562.19, -250.21, 18744.04, 13095.10, 15107.66, 0.00, 0.00, 0.00
130, -3328.78, 27406.99, 11241.70, -1968.18, 21774.98, 12320.53, 19228.06, 309.26, -1362.81, 721.27, 56320.14, -4553.18, -239.25, 18756.85, 13100.76, 15003.07, 0.00, 0.00, 0.00
131, -3331.75, 27427.31, 11257.19, -1970.78, 21780.05, 12297.28, 19268.92, 287.76, -1362.81, 721.27, 56320.14, -4553.18, -239.25, 18756.85, 13100.76, 15003.07, 0.00, 0.00, 0.00
132, -3331.75, 27427.31, 11257.19, -1970.78, 21780.05, 12297.28, 19268.92, 287.76, -1362.63, 718.59, 56403.33, -4561.75, -249.47, 18744.15, 13090.57, 15112.19, 0.00, 0.00, 0.00
133, -3314.14, 27417.79, 11241.29, -1964.54, 21778.20, 12309.40, 19222.23, 297.35, -1362.63, 718.59, 56403.33, -4561.75, -249.47, 18744.15, 13090.57, 15112.19, 0.00, 0.00, 0.00
134, -3314.14, 27417.79, 11241.29, -1964.54, 21778.20, 12309.40, 19222.23, 297.35, -1347.77, 725.72, 56311.22, -4550.95, -231.50, 18756.85, 13106.55, 15000.30, 0.00, 0.00, 0.00
135, -3321.92, 27432.90, 11246.46, -1967.42, 21789.37, 12292.54, 19268.39, 277.12, -1347.77, 725.72, 56311.22, -4550.95, -231.50, 18756.85, 13106.55, 15000.30, 0.00, 0.00, 0.00
136, -3321.92, 27432.90, 11246.46, -1967.42, 21789.37, 12292.54, 19268.39, 277.12, -1356.71, 726.23, 56401.23, -4555.06, -241.18, 18753.29, 13098.21, 15127.97, 0.00, 0.00, 0.00
137, -3314.20, 27432.38, 11254.71, -1954.19, 21783.07, 12315.27, 19233.18, 299.47, -1356.71, 726.23, 56401.23, -4555.06, -241.18, 18753.29, 13098.21, 15127.97, 0.78, 0.53, -0.22
138, -3314.20, 27432.38, 11254.71, -1954.19, 21783.07, 12315.27, 19233.18, 299.47, -1347.16, 743.33, 56315.66, -4532.44, -223.88, 18783.62, 13118.91, 15020.71, 0.00, 0.00, 0.00
139, -3306.99, 27442.80, 11244.74, -1937.72, 21796.01, 12319.57, 19279.99, 303.40, -1347.16, 743.33, 56315.66, -4532.44, -223.88, 18783.62, 13118.91, 15020.71, 0.00, 0.00, 0.00
140, -3306.99, 27442.80, 11244.74, -1937.72, 21796.01, 12319.57, 19279.99, 303.40, -1355.70, 722.99, 56403.78, -4553.03, -230.47, 18760.73, 13112.02, 15147.82, 0.00, 0.00, 0.00
141, -3323.53, 27423.00, 11255.96, -1955.87, 21777.75, 12302.09, 19250.04, 282.46, -1355.70, 722.99, 56403.78, -4553.03, -230.47, 18760.73, 13112.02, 15147.82, 0.00, 0.00, 0.00
142, -3323.53, 27423.00, 11255.96, -1955.87, 21777.75, 12302.09, 19250.04, 282.46, -1357.22, 719.41, 56310.28, -4549.81, -231.81, 18770.57, 13110.19, 15030.39, 0.00, 0.00, 0.00
143, -3315.75, 27417.59, 11222.16, -1943.13, 21792.17, 12316.10, 19264.28, 308.77, -1357.22, 719.41, 56310.28, -4549.81, -231.81, 18770.57, 13110.19, 15030.39, 0.00, 0.00, 0.00
144, -3315.75, 27417.59, 11222.16, -1943.13, 21792.17, 12316.10, 19264.28, 308.77, -1350.54, 730.01, 56393.07, -4545.05, -228.03, 18775.31, 13116.88, 15149.43, 0.00, 0.00, 0.00
145, -3319.21, 27425.92, 11246.70, -1945.90, 21781.69, 12322.02, 19253.70, 307.58, -1350.54, 730.01, 56393.07, -4545.05, -228.03, 18775.31, 13116.88, 15149.43, 0.00, 0.00, 0.00
146, -3319.21, 27425.92, 11246.70, -1945.90, 21781.69, 12322.02, 19253.70, 307.58, -1360.13, 727.44, 56319.38, -4550.93, -235.14, 18778.95, 13110.48, 15045.88, 0.00, 0.00, 0.00
147, -3322.68, 27416.87, 11213.60, -1949.61, 21787.65, 12317.98, 19266.13, 304.79, -1360.13, 727.44, 56319.38, -4550.93, -235.14, 18778.95, 13110.48, 15045.88, 0.79, 0.53, -0.22
148, -3322.68, 27416.87, 11213.60, -1949.61, 21787.65, 12317.98, 19266.13, 304.79, -1357.18, 724.06, 56382.41, -4556.58, -233.69, 18762.84, 13113.88, 15139.73, 0.00, 0.00, 0.00
149, -3328.15, 27426.04, 11248.87, -1960.45, 21782.65, 12310.38, 19273.28, 300.83, -1357.18, 724.06, 56382.41, -4556.58, -233.69, 18762.84, 13113.88, 15139.73, 0.00, 0.00, 0.00
150, -3328.15, 27426.04, 11248.87, -1960.45, 21782.65, 12310.38, 19273.28, 300.83, -1349.75, 729.47, 56297.88, -4545.61, -224.03, 18788.36, 13124.00, 15035.24, 0.00, 0.00, 0.00
151, -3320.57, 27412.20, 11188.30, -1949.81, 21795.79, 12331.97, 19258.26, 317.62, -1349.75, 729.47, 56297.88, -4545.61, -224.03, 18788.36, 13124.00, 15035.24, 0.00, 0.00, 0.00
152, -3320.57, 27412.20, 11188.30, -1949.81, 21795.79, 12331.97, 19258.26, 317.62, -1366.32, 719.93, 56357.20, -4567.31, -244.46, 18763.35, 13102.26, 15118.09, 0.00, 0.00, 0.00
153, -3347.84, 27418.75, 11248.38, -1978.82, 21772.28, 12305.62, 19263.00, 296.59, -1366.32, 719.93, 56357.20, -4567.31, -244.46, 18763.35, 13102.26, 15118.09, 0.00, 0.00, 0.00
154, -3347.84, 27418.75, 11248.38, -1978.82, 21772.28, 12305.62, 19263.00, 296.59, -1366.56, 708.06, 56299.39, -4568.58, -246.05, 18769.18, 13098.86, 15044.04, 0.00, 0.00, 0.00
155, -3338.64, 27397.09, 11193.93, -1977.12, 21780.95, 12310.69, 19241.97, 306.98, -1366.56, 708.06, 56299.39, -4568.58, -246.05, 18769.18, 13098.86, 15044.04, 0.00, 0.00, 0.00
156, -3338.64, 27397.09, 11193.93, -1977.12, 21780.95, 12310.69, 19241.97, 306.98, -1371.48, 706.81, 56337.57, -4575.33, -253.02, 18751.91, 13090.48, 15096.35, 0.00, 0.00, 0.00
157, -3355.38, 27412.96, 11244.47, -1988.95, 21766.49, 12291.80, 19257.19, 288.83, -1371.48, 706.81, 56337.57, -4575.33, -253.02, 18751.91, 13090.48, 15096.35, 0.79, 0.53, -0.22
158, -3355.38, 27412.96, 11244.47, -1988.95, 21766.49, 12291.80, 19257.19, 288.83, -1382.30, 692.64, 56310.48, -4584.83, -259.10, 18756.35, 13083.30, 15054.19, 0.00, 0.00, 0.00
159, -3353.77, 27391.21, 11208.42, -1989.55, 21763.80, 12287.49, 19222.81, 292.70, -1382.30, 692.64, 56310.48, -4584.83, -259.10, 18756.35, 13083.30, 15054.19, 0.00, 0.00, 0.00
160, -3353.77, 27391.21, 11208.42, -1989.55, 21763.80, 12287.49, 19222.81, 292.70, -1382.05, 687.38, 56336.77, -4591.20, -255.68, 18743.05, 13089.56, 15087.16, 0.00, 0.00, 0.00
161, -3348.07, 27417.63, 11265.01, -1983.43, 21775.25, 12286.71, 19264.90, 284.11, -1382.05, 687.38, 56336.77, -4591.20, -255.68, 18743.05, 13089.56, 15087.16, 0.00, 0.00, 0.00
162, -3348.07, 27417.63, 11265.01, -1983.43, 21775.25, 12286.71, 19264.90, 284.11, -1369.22, 700.39, 56330.44, -4572.00, -243.28, 18764.13, 13100.22, 15065.21, 0.00, 0.00, 0.00
163, -3340.04, 27404.33, 11230.16, -1971.94, 21775.25, 12299.05, 19231.28, 298.78, -1369.22, 700.39, 56330.44, -4572.00, -243.28, 18764.13, 13100.22, 15065.21, 0.00, 0.00, 0.00
164, -3340.04, 27404.33, 11230.16, -1971.94, 21775.25, 12299.05, 19231.28, 298.78, -1381.99, 703.50, 56347.32, -4574.08, -248.84, 18753.07, 13092.24, 15076.59, 0.00, 0.00, 0.00
165, -3340.42, 27432.52, 11295.27, -1970.26, 21776.25, 12293.91, 19270.09, 291.78, -1381.99, 703.50, 56347.32, -4574.08, -248.84, 18753.07, 13092.24, 15076.59, 0.00, 0.00, 0.00
166, -3340.42, 27432.52, 11295.27, -1970.26, 21776.25, 12293.91, 19270.09, 291.78, -1367.10, 705.56, 56363.09, -4560.65, -239.41, 18777.01, 13097.32, 15087.90, 0.00, 0.00, 0.00
167, -3320.53, 27412.13, 11256.96, -1955.84, 21779.32, 12313.78, 19228.62, 305.28, -1367.10, 705.56, 56363.09, -4560.65, -239.41, 18777.01, 13097.32, 15087.90, 0.78, 0.52, -0.22
168, -3320.53, 27412.13, 11256.96, -1955.84, 21779.32, 12313.78, 19228.62, 305.28, -1353.71, 716.46, 56354.94, -4555.84, -229.57, 18778.01, 13102.68, 15069.68, 0.00, 0.00, 0.00
169, -3328.04, 27438.11, 11314.77, -1964.61, 21780.95, 12292.97, 19274.31, 278.91, -1353.71, 716.46, 56354.94, -4555.84, -229.57, 18778.01, 13102.68, 15069.68, 0.00, 0.00, 0.00
170, -3328.04, 27438.11, 11314.77, -1964.61, 21780.95, 12292.97, 19274.31, 278.91, -1366.41, 702.98, 56385.58, -4566.71, -239.74, 18773.23, 13093.45, 15107.36, 0.00, 0.00, 0.00
171, -3325.13, 27403.04, 11261.99, -1960.94, 21773.30, 12308.26, 19211.73, 303.56, -1366.41, 702.98, 56385.58, -4566.71, -239.74, 18773.23, 13093.45, 15107.36, 0.00, 0.00, 0.00
172, -3325.13, 27403.04, 11261.99, -1960.94, 21773.30, 12308.26, 19211.73, 303.56, -1361.29, 704.55, 56322.64, -4563.00, -233.93, 18779.00, 13102.21, 15042.46, 0.00, 0.00, 0.00
173, -3335.26, 27427.40, 11301.85, -1968.52, 21773.55, 12290.64, 19274.31, 289.99, -1361.29, 704.55, 56322.64, -4563.00, -233.93, 18779.00, 13102.21, 15042.46, 0.00, 0.00, 0.00
174, -3335.26, 27427.40, 11301.85, -1968.52, 21773.55, 12290.64, 19274.31, 289.99, -1366.79, 692.30, 56370.58, -4573.37, -247.39, 18767.26, 13087.75, 15115.95, 0.00, 0.00, 0.00
175, -3331.68, 27387.39, 11237.50, -1977.01, 21772.95, 12287.65, 19223.33, 290.73, -1366.79, 692.30, 56370.58, -4573.37, -247.39, 18767.26, 13087.75, 15115.95, 0.00, 0.00, 0.00
176, -3331.68, 27387.39, 11237.50, -1977.01, 21772.95, 12287.65, 19223.33, 290.73, -1359.79, 683.70, 56300.38, -4583.23, -242.20, 18753.92, 13087.57, 15022.41, 0.00, 0.00, 0.00
177, -3344.36, 27410.50, 11282.18, -1988.86, 21774.82, 12272.98, 19280.75, 289.16, -1359.79, 683.70, 56300.38, -4583.23, -242.20, 18753.92, 13087.57, 15022.41, 0.78, 0.53, -0.22
178, -3344.36, 27410.50, 11282.18, -1988.86, 21774.82, 12272.98, 19280.75, 289.16, -1360.98, 692.10, 56384.02, -4572.72, -247.99, 18767.82, 13084.73, 15128.49, 0.00, 0.00, 0.00
179, -3338.32, 27399.42, 11278.47, -1975.27, 21767.22, 12300.77, 19229.70, 303.04, -1360.98, 692.10, 56384.02, -4572.72, -247.99, 18767.82, 13084.73, 15128.49, 0.00, 0.00, 0.00
180, -3338.32, 27399.42, 11278.47, -1975.27, 21767.22, 12300.77, 19229.70, 303.04, -1360.68, 710.32, 56316.74, -4561.92, -242.76, 18783.89, 13091.97, 15041.65, 0.00, 0.00, 0.00
181, -3339.57, 27418.10, 11311.75, -1970.46, 21779.34, 12297.79, 19270.24, 300.65, -1360.68, 710.32, 56316.74, -4561.92, -242.76, 18783.89, 13091.97, 15041.65, 0.00, 0.00, 0.00
182, -3339.57, 27418.10, 11311.75, -1970.46, 21779.34, 12297.79, 19270.24, 300.65, -1364.78, 701.46, 56398.28, -4572.81, -250.67, 18779.46, 13087.73, 15158.53, 0.00, 0.00, 0.00
183, -3335.24, 27402.25, 11304.86, -1971.38, 21771.83, 12310.04, 19236.58, 317.17, -1364.78, 701.46, 56398.28, -4572.81, -250.67, 18779.46, 13087.73, 15158.53, 0.00, 0.00, 0.00
184, -3335.24, 27402.25, 11304.86, -1971.38, 21771.83, 12310.04, 19236.58, 317.17, -1358.56, 712.66, 56286.50, -4556.89, -240.86, 18796.83, 13102.08, 15026.07, 0.00, 0.00, 0.00
185, -3342.75, 27411.04, 11284.10, -1973.35, 21783.16, 12295.16, 19287.77, 307.25, -1358.56, 712.66, 56286.50, -4556.89, -240.86, 18796.83, 13102.08, 15026.07, 0.00, 0.00, 0.00
186, -3342.75, 27411.04, 11284.10, -1973.35, 21783.16, 12295.16, 19287.77, 307.25, -1381.16, 692.19, 56387.26, -4583.90, -263.73, 18763.26, 13076.33, 15153.92, 0.00, 0.00, 0.00
187, -3360.16, 27396.67, 11307.03, -1994.18, 21758.17, 12283.22, 19243.09, 298.80, -1381.16, 692.19, 56387.26, -4583.90, -263.73, 18763.26, 13076.33, 15153.92, 0.78, 0.53, -0.22
188, -3360.16, 27396.67, 11307.03, -1994.18, 21758.17, 12283.22, 19243.09, 298.80, -1383.89, 683.23, 56289.74, -4586.09, -262.48, 18766.61, 13077.38, 15029.11, 0.00, 0.00, 0.00
189, -3361.43, 27395.55, 11286.09, -1995.12, 21769.39, 12273.32, 19260.07, 290.86, -1383.89, 683.23, 56289.74, -4586.09, -262.48, 18766.61, 13077.38, 15029.11, 0.00, 0.00, 0.00
190, -3361.43, 27395.55, 11286.09, -1995.12, 21769.39, 12273.32, 19260.07, 290.86, -1386.08, 682.04, 56372.84, -4592.97, -270.41, 18756.94, 13072.46, 15148.18, 0.00, 0.00, 0.00
191, -3359.04, 27401.88, 11314.70, -1994.09, 21761.86, 12284.85, 19245.30, 301.75, -1386.08, 682.04, 56372.84, -4592.97, -270.41, 18756.94, 13072.46, 15148.18, 0.00, 0.00, 0.00
192, -3359.04, 27401.88, 11314.70, -1994.09, 21761.86, 12284.85, 19245.30, 301.75, -1378.41, 687.56, 56288.60, -4580.63, -256.42, 18774.32, 13085.47, 15040.20, 0.00, 0.00, 0.00
193, -3344.67, 27410.52, 11292.21, -1975.67, 21778.15, 12291.09, 19266.85, 305.55, -1378.41, 687.56, 56288.60, -4580.63, -256.42, 18774.32, 13085.47, 15040.20, 0.00, 0.00, 0.00
194, -3344.67, 27410.52, 11292.21, -1975.67, 21778.15, 12291.09, 19266.85, 305.55, -1363.61, 701.73, 56372.48, -4564.94, -245.82, 18782.21, 13097.52, 15153.92, 0.00, 0.00, 0.00
195, -3339.71, 27428.76, 11325.34, -1972.65, 21772.07, 12295.25, 19263.25, 305.48, -1363.61, 701.73, 56372.48, -4564.94, -245.82, 18782.21, 13097.52, 15153.92, 0.00, 0.00, 0.00
196, -3339.71, 27428.76, 11325.34, -1972.65, 21772.07, 12295.25, 19263.25, 305.48, -1371.26, 692.90, 56310.66, -4570.02, -248.82, 18783.76, 13097.12, 15060.18, 0.00, 0.00, 0.00
197, -3336.40, 27423.49, 11304.64, -1965.99, 21778.51, 12294.04, 19253.79, 306.35, -1371.26, 692.90, 56310.66, -4570.02, -248.82, 18783.76, 13097.12, 15060.18, 0.78, 0.54, -0.21
198, -3336.40, 27423.49, 11304.64, -1965.99, 21778.51, 12294.04, 19253.79, 306.35, -1363.70, 704.55, 56386.54, -4563.87, -242.74, 18784.63, 13104.09, 15155.47, 0.00, 0.00, 0.00
199, -3336.33, 27429.17, 11337.43, -1965.52, 21775.00, 12294.67, 19262.33, 303.51, -1363.70, 704.55, 56386.54, -4563.87, -242.74, 18784.63, 13104.09, 15155.47, 0.00, 0.00, 0.00
200, -3336.33, 27429.17, 11337.43, -1965.52, 21775.00, 12294.67, 19262.33, 303.51, -1367.14, 686.35, 56323.62, -4571.96, -245.13, 18782.57, 13097.65, 15063.44, 0.00, 0.00, 0.00
201, -3351.17, 27405.96, 11308.55, -1973.97, 21771.52, 12283.04, 19251.02, 291.35, -1367.14, 686.35, 56323.62, -4571.96, -245.13, 18782.57, 13097.65, 15063.44, 0.00, 0.00, 0.00
202, -3351.17, 27405.96, 11308.55, -1973.97, 21771.52, 12283.04, 19251.02, 291.35, -1375.79, 686.20, 56387.13, -4573.12, -251.79, 18772.92, 13094.52, 15147.17, 0.00, 0.00, 0.00
203, -3350.37, 27425.10, 11367.99, -1975.29, 21766.64, 12286.02, 19262.89, 298.02, -1375.79, 686.20, 56387.13, -4573.12, -251.79, 18772.92, 13094.52, 15147.17, 0.00, 0.00, 0.00
204, -3350.37, 27425.10, 11367.99, -1975.29, 21766.64, 12286.02, 19262.89, 298.02, -1371.86, 698.18, 56339.61, -4563.00, -247.19, 18791.24, 13097.67, 15083.94, 0.00, 0.00, 0.00
205, -3338.37, 27396.31, 11304.80, -1965.90, 21774.26, 12304.10, 19237.36, 321.28, -1371.86, 698.18, 56339.61, -4563.00, -247.19, 18791.24, 13097.67, 15083.94, 0.00, 0.00, 0.00
206, -3338.37, 27396.31, 11304.80, -1965.90, 21774.26, 12304.10, 19237.36, 321.28, -1363.55, 708.55, 56355.47, -4552.22, -236.66, 18803.56, 13111.11, 15112.95, 0.00, 0.00, 0.00
207, -3335.57, 27425.01, 11325.85, -1959.62, 21779.49, 12304.32, 19281.49, 320.97, -1363.55, 708.55, 56355.47, -4552.22, -236.66, 18803.56, 13111.11, 15112.95, 0.79, 0.53, -0.21
208, -3335.57, 27425.01, 11325.85, -1959.62, 21779.49, 12304.32, 19281.49, 320.97, -1362.81, 700.86, 56335.78, -4554.12, -241.22, 18804.79, 13103.49, 15084.10, 0.00, 0.00, 0.00
209, -3334.23, 27401.34, 11267.25, -1968.90, 21772.50, 12295.67, 19244.76, 310.38, -1362.81, 700.86, 56335.78, -4554.12, -241.22, 18804.79, 13103.49, 15084.10, 0.00, 0.00, 0.00
210, -3334.23, 27401.34, 11267.25, -1968.90, 21772.50, 12295.67, 19244.76, 310.38, -1365.13, 692.03, 56345.77, -4567.74, -249.98, 18779.42, 13093.43, 15094.45, 0.00, 0.00, 0.00
211, -3335.42, 27423.40, 11301.29, -1977.86, 21780.66, 12280.41, 19273.62, 296.56, -1365.13, 692.03, 56345.77, -4567.74, -249.98, 18779.42, 13093.43, 15094.45, 0.00, 0.00, 0.00
212, -3335.42, 27423.40, 11301.29, -1977.86, 21780.66, 12280.41, 19273.62, 296.56, -1354.00, 696.77, 56349.44, -4559.11, -240.80, 18792.07, 13100.27, 15086.64, 0.00, 0.00, 0.00
213, -3321.98, 27414.62, 11255.18, -1961.43, 21780.10, 12306.98, 19241.19, 325.17, -1354.00, 696.77, 56349.44, -4559.11, -240.80, 18792.07, 13100.27, 15086.64, 0.00, 0.00, 0.00
214, -3321.98, 27414.62, 11255.18, -1961.43, 21780.10, 12306.98, 19241.19, 325.17, -1355.36, 696.77, 56352.99, -4560.11, -247.46, 18790.40, 13095.08, 15083.81, 0.00, 0.00, 0.00
215, -3343.04, 27436.05, 11310.29, -1981.59, 21772.36, 12279.58, 19280.79, 304.54, -1355.36, 696.77, 56352.99, -4560.11, -247.46, 18790.40, 13095.08, 15083.81, 0.00, 0.00, 0.00
216, -3343.04, 27436.05, 11310.29, -1981.59, 21772.36, 12279.58, 19280.79, 304.54, -1372.51, 680.63, 56351.85, -4575.87, -263.62, 18777.95, 13080.42, 15093.53, 0.00, 0.00, 0.00
217, -3348.31, 27400.47, 11251.02, -1993.17, 21760.32, 12280.05, 19223.51, 307.98, -1372.51, 680.63, 56351.85, -4575.87, -263.62, 18777.95, 13080.42, 15093.53, 0.78, 0.53, -0.21
218, -3348.31, 27400.47, 11251.02, -1993.17, 21760.32, 12280.05, 19223.51, 307.98, -1372.78, 680.70, 56307.71, -4581.79, -261.87, 18761.43, 13083.44, 15036.29, 0.00, 0.00, 0.00
219, -3354.42, 27422.42, 11278.29, -2007.97, 21764.41, 12255.39, 19272.05, 283.60, -1372.78, 680.70, 56307.71, -4581.79, -261.87, 18761.43, 13083.44, 15036.29, 0.00, 0.00, 0.00
220, -3354.42, 27422.42, 11278.29, -2007.97, 21764.41, 12255.39, 19272.05, 283.60, -1375.57, 675.85, 56355.56, -4585.50, -271.13, 18758.59, 13074.61, 15095.72, 0.00, 0.00, 0.00
221, -3337.27, 27412.67, 11250.37, -1986.04, 21756.61, 12286.69, 19217.85, 315.11, -1375.57, 675.85, 56355.56, -4585.50, -271.13, 18758.59, 13074.61, 15095.72, 0.00, 0.00, 0.00
222, -3337.27, 27412.67, 11250.37, -1986.04, 21756.61, 12286.69, 19217.85, 315.11, -1364.73, 693.91, 56315.57, -4566.15, -258.43, 18784.58, 13084.51, 15035.37, 0.00, 0.00, 0.00
223, -3341.65, 27431.71, 11295.74, -1985.48, 21766.73, 12272.09, 19271.23, 301.77, -1364.73, 693.91, 56315.57, -4566.15, -258.43, 18784.58, 13084.51, 15035.37, 0.00, 0.00, 0.00
224, -3341.65, 27431.71, 11295.74, -1985.48, 21766.73, 12272.09, 19271.23, 301.77, -1362.83, 689.04, 56381.71, -4564.18, -256.35, 18783.64, 13084.40, 15116.80, 0.00, 0.00, 0.00
225, -3315.66, 27421.83, 11262.55, -1962.68, 21777.10, 12301.57, 19226.08, 325.51, -1362.83, 689.04, 56381.71, -4564.18, -256.35, 18783.64, 13084.40, 15116.80, 0.00, 0.00, 0.00
226, -3315.66, 27421.83, 11262.55, -1962.68, 21777.10, 12301.57, 19226.08, 325.51, -1334.73, 710.43, 56310.73, -4539.33, -227.12, 18814.67, 13110.28, 15012.84, 0.00, 0.00, 0.00
227, -3328.24, 27437.17, 11273.53, -1964.29, 21786.98, 12290.37, 19268.39, 307.20, -1334.73, 710.43, 56310.73, -4539.33, -227.12, 18814.67, 13110.28, 15012.84, 0.78, 0.53, -0.21
228, -3328.24, 27437.17, 11273.53, -1964.29, 21786.98, 12290.37, 19268.39, 307.20, -1362.70, 682.40, 56391.15, -4568.96, -254.27, 18788.27, 13083.44, 15117.27, 0.00, 0.00, 0.00
229, -3336.40, 27414.97, 11266.75, -1969.17, 21764.14, 12289.59, 19212.42, 304.63, -1362.70, 682.40, 56391.15, -4568.96, -254.27, 18788.27, 13083.44, 15117.27, 0.00, 0.00, 0.00
230, -3336.40, 27414.97, 11266.75, -1969.17, 21764.14, 12289.59, 19212.42, 304.63, -1355.68, 689.51, 56304.22, -4555.80, -245.24, 18802.87, 13091.75, 15005.73, 0.00, 0.00, 0.00
231, -3331.28, 27434.17, 11275.34, -1958.86, 21778.62, 12286.15, 19257.90, 304.39, -1355.68, 689.51, 56304.22, -4555.80, -245.24, 18802.87, 13091.75, 15005.73, 0.00, 0.00, 0.00
232, -3331.28, 27434.17, 11275.34, -1958.86, 21778.62, 12286.15, 19257.90, 304.39, -1348.17, 697.04, 56399.48, -4552.56, -247.37, 18802.62, 13088.76, 15127.71, 0.00, 0.00, 0.00
233, -3317.47, 27424.94, 11264.88, -1949.65, 21774.46, 12300.59, 19220.53, 321.87, -1348.17, 697.04, 56399.48, -4552.56, -247.37, 18802.62, 13088.76, 15127.71, 0.00, 0.00, 0.00
234, -3317.47, 27424.94, 11264.88, -1949.65, 21774.46, 12300.59, 19220.53, 321.87, -1346.94, 699.21, 56318.14, -4548.31, -240.04, 18816.32, 13095.91, 15009.42, 0.00, 0.00, 0.00
235, -3327.50, 27432.00, 11268.23, -1955.96, 21783.29, 12288.03, 19254.19, 312.52, -1346.94, 699.21, 56318.14, -4548.31, -240.04, 18816.32, 13095.91, 15009.42, 0.00, 0.00, 0.00
236, -3327.50, 27432.00, 11268.23, -1955.96, 21783.29, 12288.03, 19254.19, 312.52, -1353.85, 692.50, 56412.58, -4555.38, -246.27, 18808.52, 13092.71, 15128.13, 0.00, 0.00, 0.00
237, -3326.23, 27425.34, 11275.47, -1956.65, 21776.57, 12289.93, 19225.90, 308.23, -1353.85, 692.50, 56412.58, -4555.38, -246.27, 18808.52, 13092.71, 15128.13, 0.78, 0.53, -0.22
238, -3326.23, 27425.34, 11275.47, -1956.65, 21776.57, 12289.93, 19225.90, 308.23, -1346.18, 695.23, 56325.99, -4551.58, -241.62, 18819.16, 13094.81, 15010.02, 0.00, 0.00, 0.00
239, -3326.63, 27423.55, 11261.81, -1956.54, 21785.11, 12285.19, 19249.23, 312.43, -1346.18, 695.23, 56325.99, -4551.58, -241.62, 18819.16, 13094.81, 15010.02, 0.00, 0.00, 0.00
240, -3326.63, 27423.55, 11261.81, -1956.54, 21785.11, 12285.19, 19249.23, 312.43, -1349.69, 687.72, 56402.55, -4557.68, -247.01, 18804.28, 13089.09, 15122.00, 0.00, 0.00, 0.00
241, -3326.52, 27421.16, 11264.94, -1962.21, 21777.06, 12284.92, 19229.27, 315.52, -1349.69, 687.72, 56402.55, -4557.68, -247.01, 18804.28, 13089.09, 15122.00, 0.00, 0.00, 0.00
242, -3326.52, 27421.16, 11264.94, -1962.21, 21777.06, 12284.92, 19229.27, 315.52, -1348.75, 684.57, 56310.39, -4556.16, -246.45, 18809.66, 13089.67, 14998.44, 0.00, 0.00, 0.00
243, -3328.73, 27414.41, 11229.43, -1964.52, 21779.70, 12276.02, 19244.76, 315.11, -1348.75, 684.57, 56310.39, -4556.16, -246.45, 18809.66, 13089.67, 14998.44, 0.00, 0.00, 0.00
244, -3328.73, 27414.41, 11229.43, -1964.52, 21779.70, 12276.02, 19244.76, 315.11, -1352.35, 687.61, 56388.44, -4561.57, -249.58, 18801.84, 13089.45, 15106.69, 0.00, 0.00, 0.00
245, -3331.39, 27417.03, 11248.78, -1968.27, 21776.97, 12275.33, 19246.44, 312.88, -1352.35, 687.61, 56388.44, -4561.57, -249.58, 18801.84, 13089.45, 15106.69, 0.00, 0.00, 0.00
246, -3331.39, 27417.03, 11248.78, -1968.27, 21776.97, 12275.33, 19246.44, 312.88, -1356.48, 681.26, 56317.90, -4561.25, -250.25, 18812.26, 13088.89, 15008.97, 0.00, 0.00, 0.00
247, -3334.08, 27410.57, 11225.98, -1962.75, 21780.57, 12281.23, 19245.50, 337.51, -1356.48, 681.26, 56317.90, -4561.25, -250.25, 18812.26, 13088.89, 15008.97, 0.79, 0.53, -0.21
248, -3334.08, 27410.57, 11225.98, -1962.75, 21780.57, 12281.23, 19245.50, 337.51, -1363.34, 679.14, 56379.90, -4563.27, -254.79, 18808.50, 13085.45, 15109.80, 0.00, 0.00, 0.00
249, -3346.48, 27420.96, 11273.97, -1971.49, 21768.86, 12286.75, 19252.56, 328.32, -1363.34, 679.14, 56379.90, -4563.27, -254.79, 18808.50, 13085.45, 15109.80, 0.00, 0.00, 0.00
250, -3346.48, 27420.96, 11273.97, -1971.49, 21768.86, 12286.75, 19252.56, 328.32, -1366.65, 667.15, 56312.40, -4567.71, -254.25, 18814.31, 13084.02, 15037.22, 0.00, 0.00, 0.00
251, -3344.40, 27406.34, 11229.05, -1967.42, 21772.56, 12284.00, 19238.41, 329.33, -1366.65, 667.15, 56312.40, -4567.71, -254.25, 18814.31, 13084.02, 15037.22, 0.00, 0.00, 0.00
252, -3344.40, 27406.34, 11229.05, -1967.42, 21772.56, 12284.00, 19238.41, 329.33, -1367.41, 673.26, 56359.03, -4568.54, -261.58, 18810.49, 13078.14, 15106.63, 0.00, 0.00, 0.00
253, -3349.23, 27431.36, 11283.70, -1971.33, 21767.25, 12280.18, 19258.69, 318.91, -1367.41, 673.26, 56359.03, -4568.54, -261.58, 18810.49, 13078.14, 15106.63, 0.00, 0.00, 0.00
254, -3349.23, 27431.36, 11283.70, -1971.33, 21767.25, 12280.18, 19258.69, 318.91, -1367.39, 674.75, 56326.53, -4565.63, -260.17, 18817.33, 13075.21, 15062.24, 0.00, 0.00, 0.00
255, -3332.22, 27416.07, 11233.61, -1957.86, 21779.99, 12287.25, 19229.16, 327.56, -1367.39, 674.75, 56326.53, -4565.63, -260.17, 18817.33, 13075.21, 15062.24, 0.00, 0.00, 0.00
0, -3332.22, 27416.07, 11233.61, -1957.86, 21779.99, 12287.25, 19229.16, 327.56, -1352.48, 688.52, 56350.20, -4552.22, -245.96, 18824.71, 13093.79, 15097.04, 0.00, 0.00, 0.00
1, -3337.99, 27447.88, 11284.17, -1958.12, 21782.06, 12276.54, 19266.42, 309.53, -1352.48, 688.52, 56350.20, -4552.22, -245.96, 18824.71, 13093.79, 15097.04, 0.78, 0.53, -0.21
2, -3337.99, 27447.88, 11284.17, -1958.12, 21782.06, 12276.54, 19266.42, 309.53, -1359.86, 681.80, 56350.18, -4555.17, -253.54, 18826.72, 13083.35, 15085.53, 0.00, 0.00, 0.00
3, -3327.06, 27420.81, 11242.21, -1945.99, 21778.15, 12289.46, 19218.65, 317.48, -1359.86, 681.80, 56350.18, -4555.17, -253.54, 18826.72, 13083.35, 15085.53, 0.00, 0.00, 0.00
4, -3327.06, 27420.81, 11242.21, -1945.99, 21778.15, 12289.46, 19218.65, 317.48, -1349.46, 700.03, 56357.42, -4543.06, -238.22, 18836.80, 13099.46, 15093.06, 0.00, 0.00, 0.00
5, -3331.48, 27452.39, 11310.25, -1945.59, 21782.94, 12282.69, 19268.39, 308.74, -1349.46, 700.03, 56357.42, -4543.06, -238.22, 18836.80, 13099.46, 15093.06, 0.00, 0.00, 0.00
6, -3331.48, 27452.39, 11310.25, -1945.59, 21782.94, 12282.69, 19268.39, 308.74, -1358.32, 692.93, 56373.63, -4549.76, -250.23, 18836.87, 13088.29, 15116.93, 0.00, 0.00, 0.00
7, -3326.19, 27422.91, 11251.62, -1944.47, 21781.60, 12295.47, 19215.95, 327.63, -1358.32, 692.93, 56373.63, -4549.76, -250.23, 18836.87, 13088.29, 15116.93, 0.00, 0.00, 0.00
8, -3326.19, 27422.91, 11251.62, -1944.47, 21781.60, 12295.47, 19215.95, 327.63, -1362.61, 672.09, 56327.55, -4563.89, -253.00, 18821.11, 13092.22, 15072.65, 0.00, 0.00, 0.00
9, -3355.73, 27429.70, 11278.42, -1976.99, 21775.38, 12259.04, 19261.26, 299.83, -1362.61, 672.09, 56327.55, -4563.89, -253.00, 18821.11, 13092.22, 15072.65, 0.00, 0.00, 0.00
10, -3355.73, 27429.70, 11278.42, -1976.99, 21775.38, 12259.04, 19261.26, 299.83, -1369.11, 657.32, 56343.74, -4574.44, -258.99, 18804.90, 13079.82, 15098.94, 0.00, 0.00, 0.00
11, -3346.32, 27405.16, 11231.28, -1973.57, 21771.60, 12263.71, 19213.54, 301.23, -1369.11, 657.32, 56343.74, -4574.44, -258.99, 18804.90, 13079.82, 15098.94, 0.78, 0.53, -0.21
12, -3346.32, 27405.16, 11231.28, -1973.57, 21771.60, 12263.71, 19213.54, 301.23, -1374.10, 661.68, 56310.50, -4578.42, -262.25, 18797.10, 13078.32, 15057.70, 0.00, 0.00, 0.00
13, -3353.23, 27434.37, 11296.08, -1974.84, 21770.55, 12255.42, 19255.22, 306.91, -1374.10, 661.68, 56310.50, -4578.42, -262.25, 18797.10, 13078.32, 15057.70, 0.00, 0.00, 0.00
14, -3353.23, 27434.37, 11296.08, -1974.84, 21770.55, 12255.42, 19255.22, 306.91, -1365.29, 676.34, 56362.76, -4563.73, -263.06, 18825.60, 13079.50, 15137.27, 0.00, 0.00, 0.00
15, -3327.15, 27429.61, 11266.49, -1951.69, 21769.91, 12300.59, 19211.21, 339.66, -1365.29, 676.34, 56362.76, -4563.73, -263.06, 18825.60, 13079.50, 15137.27, 0.00, 0.00, 0.00
16, -3327.15, 27429.61, 11266.49, -1951.69, 21769.91, 12300.59, 19211.21, 339.66, -1346.38, 693.87, 56302.63, -4547.44, -248.57, 18840.51, 13095.73, 15059.62, 0.00, 0.00, 0.00
17, -3333.87, 27461.67, 11301.00, -1958.15, 21785.24, 12292.59, 19267.07, 322.98, -1346.38, 693.87, 56302.63, -4547.44, -248.57, 18840.51, 13095.73, 15059.62, 0.00, 0.00, 0.00
18, -3333.87, 27461.67, 11301.00, -1958.15, 21785.24, 12292.59, 19267.07, 322.98, -1369.27, 675.58, 56386.07, -4563.13, -260.73, 18824.88, 13085.63, 15161.99, 0.00, 0.00, 0.00
19, -3342.70, 27435.87, 11303.72, -1962.86, 21774.73, 12297.06, 19227.48, 340.28, -1369.27, 675.58, 56386.07, -4563.13, -260.73, 18824.88, 13085.63, 15161.99, 0.00, 0.00, 0.00
20, -3342.70, 27435.87, 11303.72, -1962.86, 21774.73, 12297.06, 19227.48, 340.28, -1360.68, 666.82, 56321.99, -4563.20, -255.15, 18821.22, 13091.01, 15060.31, 0.00, 0.00, 0.00
21, -3342.32, 27451.52, 11334.35, -1974.26, 21773.46, 12275.11, 19279.92, 324.88, -1360.68, 666.82, 56321.99, -4563.20, -255.15, 18821.22, 13091.01, 15060.31, 0.78, 0.53, -0.21
22, -3342.32, 27451.52, 11334.35, -1974.26, 21773.46, 12275.11, 19279.92, 324.88, -1355.52, 660.52, 56407.00, -4569.41, -261.96, 18811.59, 13082.74, 15158.51, 0.00, 0.00, 0.00
23, -3331.10, 27437.86, 11324.02, -1971.80, 21766.06, 12289.70, 19228.06, 335.34, -1355.52, 660.52, 56407.00, -4569.41, -261.96, 18811.59, 13082.74, 15158.51, 0.00, 0.00, 0.00
24, -3331.10, 27437.86, 11324.02, -1971.80, 21766.06, 12289.70, 19228.06, 335.34, -1344.86, 676.97, 56329.34, -4550.14, -247.59, 18837.63, 13098.03, 15041.40, 0.00, 0.00, 0.00
25, -3327.28, 27458.89, 11340.29, -1961.70, 21783.09, 12288.92, 19274.15, 332.21, -1344.86, 676.97, 56329.34, -4550.14, -247.59, 18837.63, 13098.03, 15041.40, 0.00, 0.00, 0.00
26, -3327.28, 27458.89, 11340.29, -1961.70, 21783.09, 12288.92, 19274.15, 332.21, -1355.43, 676.23, 56429.86, -4558.62, -259.15, 18825.11, 13085.85, 15177.84, 0.00, 0.00, 0.00
27, -3319.90, 27450.27, 11341.63, -1969.73, 21772.10, 12285.37, 19225.16, 327.83, -1355.43, 676.23, 56429.86, -4558.62, -259.15, 18825.11, 13085.85, 15177.84, 0.00, 0.00, 0.00
28, -3319.90, 27450.27, 11341.63, -1969.73, 21772.10, 12285.37, 19225.16, 327.83, -1341.91, 683.27, 56319.02, -4550.44, -248.82, 18831.70, 13098.23, 15046.52, 0.00, 0.00, 0.00
29, -3319.10, 27450.31, 11316.80, -1964.65, 21785.87, 12278.66, 19252.36, 318.87, -1341.91, 683.27, 56319.02, -4550.44, -248.82, 18831.70, 13098.23, 15046.52, 0.00, 0.00, 0.00
30, -3319.10, 27450.31, 11316.80, -1964.65, 21785.87, 12278.66, 19252.36, 318.87, -1352.59, 668.72, 56412.25, -4566.48, -259.95, 18818.25, 13086.07, 15172.21, 0.00, 0.00, 0.00
31, -3335.60, 27433.26, 11323.77, -1979.90, 21766.91, 12267.53, 19223.80, 308.61, -1352.59, 668.72, 56412.25, -4566.48, -259.95, 18818.25, 13086.07, 15172.21, 0.79, 0.53, -0.20
32, -3335.60, 27433.26, 11323.77, -1979.90, 21766.91, 12267.53, 19223.80, 308.61, -1361.00, 655.89, 56305.65, -4571.45, -265.43, 18821.11, 13082.30, 15034.50, 0.00, 0.00, 0.00
33, -3341.45, 27421.16, 11277.15, -1983.02, 21770.89, 12237.69, 19243.31, 293.41, -1361.00, 655.89, 56305.65, -4571.45, -265.43, 18821.11, 13082.30, 15034.50, 0.00, 0.00, 0.00
34, -3341.45, 27421.16, 11277.15, -1983.02, 21770.89, 12237.69, 19243.31, 293.41, -1365.51, 646.64, 56401.72, -4585.48, -271.60, 18792.83, 13073.94, 15153.30, 0.00, 0.00, 0.00
35, -3342.14, 27429.77, 11316.78, -1985.55, 21766.08, 12259.91, 19239.17, 296.85, -1365.51, 646.64, 56401.72, -4585.48, -271.60, 18792.83, 13073.94, 15153.30, 0.00, 0.00, 0.00
36, -3342.14, 27429.77, 11316.78, -1985.55, 21766.08, 12259.91, 19239.17, 296.85, -1353.96, 641.05, 56320.49, -4578.17, -259.64, 18811.99, 13084.71, 15046.10, 0.00, 0.00, 0.00
37, -3335.73, 27416.27, 11280.28, -1978.91, 21772.70, 12256.40, 19252.12, 297.88, -1353.96, 641.05, 56320.49, -4578.17, -259.64, 18811.99, 13084.71, 15046.10, 0.00, 0.00, 0.00
38, -3335.73, 27416.27, 11280.28, -1978.91, 21772.70, 12256.40, 19252.12, 297.88, -1360.35, 635.33, 56392.18, -4586.22, -264.53, 18802.06, 13082.39, 15152.52, 0.00, 0.00, 0.00
39, -3332.87, 27440.50, 11334.73, -1966.22, 21771.87, 12275.49, 19257.30, 313.64, -1360.35, 635.33, 56392.18, -4586.22, -264.53, 18802.06, 13082.39, 15152.52, 0.00, 0.00, 0.00
40, -3332.87, 27440.50, 11334.73, -1966.22, 21771.87, 12275.49, 19257.30, 313.64, -1345.55, 667.89, 56337.57, -4552.31, -251.01, 18853.00, 13096.29, 15071.89, 0.00, 0.00, 0.00
41, -3327.73, 27444.99, 11320.64, -1951.49, 21774.42, 12285.19, 19250.28, 318.36, -1345.55, 667.89, 56337.57, -4552.31, -251.01, 18853.00, 13096.29, 15071.89, 0.79, 0.53, -0.22
42, -3327.73, 27444.99, 11320.64, -1951.49, 21774.42, 12285.19, 19250.28, 318.36, -1356.26, 659.02, 56417.25, -4570.28, -262.30, 18827.41, 13086.10, 15170.46, 0.00, 0.00, 0.00
43, -3333.83, 27460.46, 11395.92, -1958.97, 21767.36, 12281.55, 19265.95, 321.44, -1356.26, 659.02, 56417.25, -4570.28, -262.30, 18827.41, 13086.10, 15170.46, 0.00, 0.00, 0.00
44, -3333.83, 27460.46, 11395.92, -1958.97, 21767.36, 12281.55, 19265.95, 321.44, -1341.37, 668.12, 56341.30, -4548.36, -246.58, 18856.89, 13102.53, 15079.47, 0.00, 0.00, 0.00
45, -3320.42, 27443.05, 11332.98, -1943.17, 21786.87, 12296.23, 19249.77, 335.07, -1341.37, 668.12, 56341.30, -4548.36, -246.58, 18856.89, 13102.53, 15079.47, 0.00, 0.00, 0.00
46, -3320.42, 27443.05, 11332.98, -1943.17, 21786.87, 12296.23, 19249.77, 335.07, -1347.90, 674.11, 56391.59, -4556.96, -251.14, 18842.79, 13098.30, 15144.29, 0.00, 0.00, 0.00
47, -3338.70, 27458.47, 11402.59, -1962.44, 21776.10, 12279.31, 19275.96, 322.47, -1347.90, 674.11, 56391.59, -4556.96, -251.14, 18842.79, 13098.30, 15144.29, 0.00, 0.00, 0.00
48, -3338.70, 27458.47, 11402.59, -1962.44, 21776.10, 12279.31, 19275.96, 322.47, -1358.02, 654.26, 56364.23, -4566.82, -260.24, 18840.44, 13087.84, 15103.52, 0.00, 0.00, 0.00
49, -3329.47, 27430.93, 11345.63, -1957.41, 21773.13, 12292.97, 19236.16, 338.70, -1358.02, 654.26, 56364.23, -4566.82, -260.24, 18840.44, 13087.84, 15103.52, 0.00, 0.00, 0.00
50, -3329.47, 27430.93, 11345.63, -1957.41, 21773.13, 12292.97, 19236.16, 338.70, -1348.82, 668.92, 56380.39, -4560.31, -255.77, 18843.77, 13090.01, 15123.30, 0.78, 0.53, -0.21
51, -3339.60, 27453.06, 11394.16, -1965.57, 21772.59, 12276.81, 19282.63, 323.52, -1348.82, 668.92, 56380.39, -4560.31, -255.77, 18843.77, 13090.01, 15123.30, 0.00, 0.00, 0.00
52, -3339.60, 27453.06, 11394.16, -1965.57, 21772.59, 12276.81, 19282.63, 323.52, -1354.38, 656.54, 56375.37, -4570.89, -263.71, 18838.94, 13083.68, 15115.43, 0.00, 0.00, 0.00
53, -3338.28, 27414.06, 11333.00, -1966.13, 21769.99, 12281.70, 19239.38, 336.95, -1354.38, 656.54, 56375.37, -4570.89, -263.71, 18838.94, 13083.68, 15115.43, 0.00, 0.00, 0.00
54, -3338.28, 27414.06, 11333.00, -1966.13, 21769.99, 12281.70, 19239.38, 336.95, -1359.34, 646.79, 56345.86, -4580.70, -264.13, 18827.03, 13083.35, 15088.14, 0.00, 0.00, 0.00
55, -3355.69, 27421.68, 11369.30, -1986.38, 21768.30, 12258.12, 19275.85, 315.90, -1359.34, 646.79, 56345.86, -4580.70, -264.13, 18827.03, 13083.35, 15088.14, 0.00, 0.00, 0.00
56, -3355.69, 27421.68, 11369.30, -1986.38, 21768.30, 12258.12, 19275.85, 315.90, -1372.60, 635.66, 56354.80, -4592.90, -274.12, 18821.58, 13071.43, 15096.19, 0.00, 0.00, 0.00
57, -3346.82, 27394.83, 11317.67, -1980.54, 21763.36, 12271.15, 19225.05, 329.58, -1372.60, 635.66, 56354.80, -4592.90, -274.12, 18821.58, 13071.43, 15096.19, 0.00, 0.00, 0.00
58, -3346.82, 27394.83, 11317.67, -1980.54, 21763.36, 12271.15, 19225.05, 329.58, -1362.61, 653.41, 56323.87, -4580.95, -263.19, 18830.36, 13084.46, 15056.58, 0.00, 0.00, 0.00
59, -3349.36, 27425.79, 11357.48, -1975.45, 21773.35, 12269.88, 19277.62, 328.01, -1362.61, 653.41, 56323.87, -4580.95, -263.19, 18830.36, 13084.46, 15056.58, 0.00, 0.00, 0.00
60, -3349.36, 27425.79, 11357.48, -1975.45, 21773.35, 12269.88, 19277.62, 328.01, -1358.20, 653.52, 56367.50, -4577.82, -261.94, 18840.20, 13084.49, 15106.05, 0.79, 0.53, -0.22
61, -3342.52, 27410.01, 11326.90, -1971.40, 21763.02, 12271.55, 19225.16, 328.88, -1358.20, 653.52, 56367.50, -4577.82, -261.94, 18840.20, 13084.49, 15106.05, 0.00, 0.00, 0.00
62, -3342.52, 27410.01, 11326.90, -1971.40, 21763.02, 12271.55, 19225.16, 328.88, -1355.10, 655.08, 56333.52, -4574.57, -257.81, 18836.98, 13084.73, 15045.76, 0.00, 0.00, 0.00
63, -3329.20, 27440.19, 11361.32, -1957.61, 21779.40, 12270.28, 19273.19, 320.84, -1355.10, 655.08, 56333.52, -4574.57, -257.81, 18836.98, 13084.73, 15045.76, 0.00, 0.00, 0.00
64, -3329.20, 27440.19, 11361.32, -1957.61, 21779.40, 12270.28, 19273.19, 320.84, -1337.42, 670.71, 56382.77, -4553.01, -244.42, 18859.57, 13100.60, 15106.02, 0.00, 0.00, 0.00
65, -3316.86, 27424.83, 11316.89, -1945.09, 21780.63, 12286.78, 19236.29, 334.54, -1337.42, 670.71, 56382.77, -4553.01, -244.42, 18859.57, 13100.60, 15106.02, 0.00, 0.00, 0.00
66, -3316.86, 27424.83, 11316.89, -1945.09, 21780.63, 12286.78, 19236.29, 334.54, -1337.93, 669.64, 56331.25, -4555.82, -240.06, 18854.05, 13104.96, 15029.07, 0.00, 0.00, 0.00
67, -3318.70, 27442.46, 11336.11, -1946.66, 21791.90, 12279.85, 19290.98, 321.55, -1337.93, 669.64, 56331.25, -4555.82, -240.06, 18854.05, 13104.96, 15029.07, 0.00, 0.00, 0.00
68, -3318.70, 27442.46, 11336.11, -1946.66, 21791.90, 12279.85, 19290.98, 321.55, -1332.25, 663.04, 56403.73, -4557.63, -237.96, 18850.79, 13107.38, 15127.35, 0.00, 0.00, 0.00
69, -3321.22, 27414.48, 11290.02, -1951.28, 21780.01, 12287.56, 19244.20, 339.55, -1332.25, 663.04, 56403.73, -4557.63, -237.96, 18850.79, 13107.38, 15127.35, 0.00, 0.00, 0.00
70, -3321.22, 27414.48, 11290.02, -1951.28, 21780.01, 12287.56, 19244.20, 339.55, -1342.78, 665.05, 56318.14, -4556.20, -242.54, 18851.71, 13102.84, 15020.95, 0.78, 0.52, -0.22
71, -3333.14, 27426.13, 11284.97, -1965.10, 21779.92, 12259.24, 19274.09, 320.05, -1342.78, 665.05, 56318.14, -4556.20, -242.54, 18851.71, 13102.84, 15020.95, 0.00, 0.00, 0.00
72, -3333.14, 27426.13, 11284.97, -1965.10, 21779.92, 12259.24, 19274.09, 320.05, -1355.92, 656.67, 56410.28, -4566.86, -251.81, 18844.06, 13092.04, 15146.12, 0.00, 0.00, 0.00
73, -3330.54, 27420.87, 11296.26, -1950.10, 21776.16, 12293.28, 19243.40, 341.18, -1355.92, 656.67, 56410.28, -4566.86, -251.81, 18844.06, 13092.04, 15146.12, 0.00, 0.00, 0.00
74, -3330.54, 27420.87, 11296.26, -1950.10, 21776.16, 12293.28, 19243.40, 341.18, -1352.77, 666.44, 56325.93, -4552.71, -241.02, 18862.41, 13105.18, 15034.01, 0.00, 0.00, 0.00
75, -3329.25, 27424.23, 11279.90, -1954.77, 21787.14, 12278.04, 19286.11, 329.17, -1352.77, 666.44, 56325.93, -4552.71, -241.02, 18862.41, 13105.18, 15034.01, 0.00, 0.00, 0.00
76, -3329.25, 27424.23, 11279.90, -1954.77, 21787.14, 12278.04, 19286.11, 329.17, -1358.20, 648.69, 56410.08, -4573.57, -257.85, 18835.86, 13085.96, 15148.98, 0.00, 0.00, 0.00
77, -3341.07, 27416.56, 11296.73, -1964.83, 21763.94, 12273.19, 19243.42, 317.28, -1358.20, 648.69, 56410.08, -4573.57, -257.85, 18835.86, 13085.96, 15148.98, 0.00, 0.00, 0.00
78, -3341.07, 27416.56, 11296.73, -1964.83, 21763.94, 12273.19, 19243.42, 317.28, -1361.94, 651.87, 56314.55, -4564.47, -257.74, 18856.36, 13087.77, 15023.66, 0.00, 0.00, 0.00
79, -3337.47, 27427.47, 11291.16, -1957.41, 21776.61, 12280.20, 19266.29, 325.20, -1361.94, 651.87, 56314.55, -4564.47, -257.74, 18856.36, 13087.77, 15023.66, 0.00, 0.00, 0.00
80, -3337.47, 27427.47, 11291.16, -1957.41, 21776.61, 12280.20, 19266.29, 325.20, -1356.75, 666.04, 56401.23, -4559.24, -255.93, 18859.71, 13086.21, 15140.89, 0.78, 0.53, -0.21
81, -3334.03, 27439.67, 11316.69, -1958.42, 21768.72, 12290.04, 19245.19, 340.39, -1356.75, 666.04, 56401.23, -4559.24, -255.93, 18859.71, 13086.21, 15140.89, 0.00, 0.00, 0.00
82, -3334.03, 27439.67, 11316.69, -1958.42, 21768.72, 12290.04, 19245.19, 340.39, -1355.83, 664.18, 56324.32, -4560.11, -252.53, 18865.23, 13086.95, 15029.36, 0.00, 0.00, 0.00
83, -3333.72, 27435.65, 11308.37, -1959.93, 21779.00, 12282.37, 19254.39, 339.17, -1355.83, 664.18, 56324.32, -4560.11, -252.53, 18865.23, 13086.95, 15029.36, 0.00, 0.00, 0.00
84, -3333.72, 27435.65, 11308.37, -1959.93, 21779.00, 12282.37, 19254.39, 339.17, -1359.86, 654.59, 56413.48, -4571.69, -254.50, 18848.00, 13086.75, 15143.69, 0.00, 0.00, 0.00
85, -3331.28, 27434.44, 11340.36, -1961.75, 21776.61, 12286.98, 19253.81, 346.90, -1359.86, 654.59, 56413.48, -4571.69, -254.50, 18848.00, 13086.75, 15143.69, 0.00, 0.00, 0.00
86, -3331.28, 27434.44, 11340.36, -1961.75, 21776.61, 12286.98, 19253.81, 346.90, -1355.01, 657.03, 56327.45, -4563.49, -248.33, 18865.65, 13094.41, 15028.24, 0.00, 0.00, 0.00
87, -3340.54, 27420.54, 11297.98, -1969.12, 21772.54, 12272.58, 19243.62, 327.97, -1355.01, 657.03, 56327.45, -4563.49, -248.33, 18865.65, 13094.41, 15028.24, 0.00, 0.00, 0.00
88, -3340.54, 27420.54, 11297.98, -1969.12, 21772.54, 12272.58, 19243.62, 327.97, -1366.61, 637.90, 56408.61, -4584.50, -262.86, 18841.58, 13079.26, 15133.36, 0.00, 0.00, 0.00
89, -3347.20, 27429.19, 11352.47, -1974.20, 21766.11, 12270.64, 19253.03, 329.96, -1366.61, 637.90, 56408.61, -4584.50, -262.86, 18841.58, 13079.26, 15133.36, 0.00, 0.00, 0.00
90, -3347.20, 27429.19, 11352.47, -1974.20, 21766.11, 12270.64, 19253.03, 329.96, -1359.59, 652.72, 56336.96, -4566.42, -249.45, 18867.33, 13094.10, 15048.85, 0.79, 0.53, -0.22
91, -3333.18, 27413.36, 11290.11, -1960.92, 21779.79, 12282.89, 19249.34, 337.96, -1359.59, 652.72, 56336.96, -4566.42, -249.45, 18867.33, 13094.10, 15048.85, 0.00, 0.00, 0.00
92, -3333.18, 27413.36, 11290.11, -1960.92, 21779.79, 12282.89, 19249.34, 337.96, -1362.99, 649.59, 56381.69, -4578.98, -256.37, 18846.05, 13093.27, 15122.47, 0.00, 0.00, 0.00
93, -3338.64, 27430.33, 11336.74, -1975.22, 21777.08, 12267.29, 19268.01, 325.51, -1362.99, 649.59, 56381.69, -4578.98, -256.37, 18846.05, 13093.27, 15122.47, 0.00, 0.00, 0.00
94, -3338.64, 27430.33, 11336.74, -1975.22, 21777.08, 12267.29, 19268.01, 325.51, -1356.86, 647.62, 56334.60, -4576.27, -255.99, 18847.62, 13090.46, 15067.98, 0.00, 0.00, 0.00
95, -3320.60, 27419.33, 11281.51, -1964.79, 21784.34, 12263.11, 19227.33, 317.44, -1356.86, 647.62, 56334.60, -4576.27, -255.99, 18847.62, 13090.46, 15067.98, 0.00, 0.00, 0.00
96, -3320.60, 27419.33, 11281.51, -1964.79, 21784.34, 12263.11, 19227.33, 317.44, -1350.92, 655.98, 56378.54, -4568.25, -249.80, 18854.77, 13095.26, 15119.64, 0.00, 0.00, 0.00
97, -3330.10, 27449.42, 11338.50, -1956.02, 21785.35, 12269.36, 19264.10, 318.71, -1350.92, 655.98, 56378.54, -4568.25, -249.80, 18854.77, 13095.26, 15119.64, 0.00, 0.00, 0.00
98, -3330.10, 27449.42, 11338.50, -1956.02, 21785.35, 12269.36, 19264.10, 318.71, -1354.45, 656.81, 56366.70, -4562.91, -249.36, 18872.31, 13096.92, 15104.26, 0.00, 0.00, 0.00
99, -3319.41, 27430.08, 11300.30, -1948.24, 21779.09, 12288.23, 19226.23, 322.58, -1354.45, 656.81, 56366.70, -4562.91, -249.36, 18872.31, 13096.92, 15104.26, 0.00, 0.00, 0.00
100, -3319.41, 27430.08, 11300.30, -1948.24, 21779.09, 12288.23, 19226.23, 322.58, -1347.90, 669.86, 56383.93, -4558.24, -244.75, 18866.93, 13105.16, 15127.71, 0.79, 0.52, -0.21
101, -3314.43, 27459.01, 11362.53, -1940.29, 21790.45, 12291.31, 19285.91, 333.71, -1347.90, 669.86, 56383.93, -4558.24, -244.75, 18866.93, 13105.16, 15127.71, 0.00, 0.00, 0.00
102, -3314.43, 27459.01, 11362.53, -1940.29, 21790.45, 12291.31, 19285.91, 333.71, -1350.07, 670.60, 56402.84, -4551.58, -236.70, 18883.83, 13115.24, 15146.44, 0.00, 0.00, 0.00
103, -3307.41, 27433.52, 11324.71, -1939.37, 21791.56, 12292.12, 19257.84, 337.42, -1350.07, 670.60, 56402.84, -4551.58, -236.70, 18883.83, 13115.24, 15146.44, 0.00, 0.00, 0.00
104, -3307.41, 27433.52, 11324.71, -1939.37, 21791.56, 12292.12, 19257.84, 337.42, -1348.97, 675.98, 56382.34, -4553.81, -233.55, 18868.56, 13117.25, 15129.27, 0.00, 0.00, 0.00
105, -3316.66, 27462.49, 11383.43, -1939.93, 21797.06, 12298.31, 19305.11, 350.01, -1348.97, 675.98, 56382.34, -4553.81, -233.55, 18868.56, 13117.25, 15129.27, 0.00, 0.00, 0.00
106, -3316.66, 27462.49, 11383.43, -1939.93, 21797.06, 12298.31, 19305.11, 350.01, -1358.72, 671.02, 56415.02, -4553.36, -247.37, 18889.21, 13104.51, 15173.03, 0.00, 0.00, 0.00
107, -3320.80, 27431.02, 11342.48, -1935.88, 21778.42, 12309.22, 19247.71, 354.92, -1358.72, 671.02, 56415.02, -4553.36, -247.37, 18889.21, 13104.51, 15173.03, 0.00, 0.00, 0.00
108, -3320.80, 27431.02, 11342.48, -1935.88, 21778.42, 12309.22, 19247.71, 354.92, -1363.26, 670.66, 56362.02, -4550.77, -245.31, 18892.25, 13107.15, 15114.27, 0.00, 0.00, 0.00
109, -3327.48, 27457.62, 11379.90, -1944.11, 21791.47, 12283.20, 19304.80, 342.29, -1363.26, 670.66, 56362.02, -4550.77, -245.31, 18892.25, 13107.15, 15114.27, 0.00, 0.00, 0.00
110, -3327.48, 27457.62, 11379.90, -1944.11, 21791.47, 12283.20, 19304.80, 342.29, -1369.60, 662.15, 56404.58, -4560.98, -257.49, 18878.39, 13098.86, 15184.23, 0.78, 0.53, -0.22
111, -3321.67, 27422.77, 11334.08, -1948.51, 21775.11, 12299.20, 19238.44, 340.44, -1369.60, 662.15, 56404.58, -4560.98, -257.49, 18878.39, 13098.86, 15184.23, 0.00, 0.00, 0.00
112, -3321.67, 27422.77, 11334.08, -1948.51, 21775.11, 12299.20, 19238.44, 340.44, -1366.27, 659.04, 56332.45, -4564.83, -256.64, 18869.90, 13096.22, 15097.44, 0.00, 0.00, 0.00
113, -3335.08, 27443.43, 11373.53, -1958.55, 21781.77, 12276.32, 19288.93, 324.66, -1366.27, 659.04, 56332.45, -4564.83, -256.64, 18869.90, 13096.22, 15097.44, 0.00, 0.00, 0.00
114, -3335.08, 27443.43, 11373.53, -1958.55, 21781.77, 12276.32, 19288.93, 324.66, -1359.81, 661.86, 56399.20, -4561.99, -254.79, 18870.75, 13098.95, 15180.97, 0.00, 0.00, 0.00
115, -3315.28, 27427.40, 11335.17, -1948.51, 21781.17, 12294.20, 19247.71, 350.90, -1359.81, 661.86, 56399.20, -4561.99, -254.79, 18870.75, 13098.95, 15180.97, 0.00, 0.00, 0.00
116, -3315.28, 27427.40, 11335.17, -1948.51, 21781.17, 12294.20, 19247.71, 350.90, -1351.36, 665.03, 56313.68, -4561.63, -248.75, 18868.02, 13102.95, 15066.35, 0.00, 0.00, 0.00
117, -3334.23, 27433.66, 11343.69, -1963.76, 21786.04, 12270.73, 19295.41, 325.44, -1351.36, 665.03, 56313.68, -4561.63, -248.75, 18868.02, 13102.95, 15066.35, 0.00, 0.00, 0.00
118, -3334.23, 27433.66, 11343.69, -1963.76, 21786.04, 12270.73, 19295.41, 325.44, -1369.94, 635.17, 56392.00, -4586.94, -265.52, 18845.76, 13083.97, 15170.73, 0.00, 0.00, 0.00
119, -3332.09, 27414.10, 11331.48, -1968.16, 21780.37, 12277.70, 19250.89, 338.14, -1369.94, 635.17, 56392.00, -4586.94, -265.52, 18845.76, 13083.97, 15170.73, 0.00, 0.00, 0.00
120, -3332.09, 27414.10, 11331.48, -1968.16, 21780.37, 12277.70, 19250.89, 338.14, -1358.52, 647.55, 56294.77, -4568.56, -252.35, 18863.80, 13094.75, 15047.01, 0.78, 0.53, -0.21
121, -3333.36, 27437.75, 11330.57, -1963.40, 21789.02, 12268.51, 19288.33, 324.88, -1358.52, 647.55, 56294.77, -4568.56, -252.35, 18863.80, 13094.75, 15047.01, 0.00, 0.00, 0.00
122, -3333.36, 27437.75, 11330.57, -1963.40, 21789.02, 12268.51, 19288.33, 324.88, -1370.25, 646.01, 56395.10, -4573.03, -264.29, 18863.17, 13082.32, 15168.97, 0.00, 0.00, 0.00
123, -3320.66, 27439.98, 11330.12, -1953.43, 21782.89, 12288.09, 19243.02, 344.78, -1370.25, 646.01, 56395.10, -4573.03, -264.29, 18863.17, 13082.32, 15168.97, 0.00, 0.00, 0.00
124, -3320.66, 27439.98, 11330.12, -1953.43, 21782.89, 12288.09, 19243.02, 344.78, -1345.15, 675.13, 56314.35, -4546.52, -246.85, 18896.14, 13097.16, 15048.33, 0.00, 0.00, 0.00
125, -3310.99, 27462.67, 11330.46, -1936.44, 21798.94, 12294.67, 19271.47, 345.27, -1345.15, 675.13, 56314.35, -4546.52, -246.85, 18896.14, 13097.16, 15048.33, 0.00, 0.00, 0.00
126, -3310.99, 27462.67, 11330.46, -1936.44, 21798.94, 12294.67, 19271.47, 345.27, -1342.31, 681.19, 56430.15, -4547.75, -251.30, 18891.18, 13095.24, 15181.75, 0.00, 0.00, 0.00
127, -3314.05, 27464.59, 11362.31, -1935.86, 21780.84, 12300.34, 19251.02, 353.72, -1342.31, 681.19, 56430.15, -4547.75, -251.30, 18891.18, 13095.24, 15181.75, 0.00, 0.00, 0.00
128, -3314.05, 27464.59, 11362.31, -1935.86, 21780.84, 12300.34, 19251.02, 353.72, -1342.40, 679.56, 56337.50, -4536.91, -241.76, 18907.45, 13104.34, 15052.45, 0.00, 0.00, 0.00
129, -3314.47, 27447.49, 11326.17, -1931.30, 21796.44, 12297.04, 19265.44, 347.39, -1342.40, 679.56, 56337.50, -4536.91, -241.76, 18907.45, 13104.34, 15052.45, 0.00, 0.00, 0.00
130, -3314.47, 27447.49, 11326.17, -1931.30, 21796.44, 12297.04, 19265.44, 347.39, -1357.78, 668.38, 56434.64, -4555.75, -254.45, 18884.72, 13092.24, 15171.83, 0.79, 0.53, -0.21
131, -3323.75, 27449.37, 11364.43, -1939.64, 21775.27, 12293.93, 19250.48, 342.61, -1357.78, 668.38, 56434.64, -4555.75, -254.45, 18884.72, 13092.24, 15171.83, 0.00, 0.00, 0.00
132, -3323.75, 27449.37, 11364.43, -1939.64, 21775.27, 12293.93, 19250.48, 342.61, -1359.32, 664.81, 56342.46, -4550.99, -247.99, 18899.29, 13096.98, 15057.97, 0.00, 0.00, 0.00
133, -3326.19, 27439.96, 11331.42, -1934.19, 21789.37, 12290.84, 19264.81, 341.65, -1359.32, 664.81, 56342.46, -4550.99, -247.99, 18899.29, 13096.98, 15057.97, 0.00, 0.00, 0.00
134, -3326.19, 27439.96, 11331.42, -1934.19, 21789.37, 12290.84, 19264.81, 341.65, -1367.59, 663.87, 56426.66, -4547.51, -253.87, 18893.88, 13093.99, 15172.59, 0.00, 0.00, 0.00
135, -3327.53, 27445.79, 11370.13, -1936.11, 21788.37, 12289.95, 19271.47, 343.37, -1367.59, 663.87, 56426.66, -4547.51, -253.87, 18893.88, 13093.99, 15172.59, 0.00, 0.00, 0.00
136, -3327.53, 27445.79, 11370.13, -1936.11, 21788.37, 12289.95, 19271.47, 343.37, -1362.56, 661.12, 56349.66, -4548.87, -247.77, 18894.85, 13097.90, 15074.33, 0.00, 0.00, 0.00
137, -3319.64, 27431.36, 11326.19, -1934.39, 21797.58, 12295.09, 19261.48, 353.43, -1362.56, 661.12, 56349.66, -4548.87, -247.77, 18894.85, 13097.90, 15074.33, 0.00, 0.00, 0.00
138, -3319.64, 27431.36, 11326.19, -1934.39, 21797.58, 12295.09, 19261.48, 353.43, -1358.32, 669.41, 56412.58, -4547.24, -244.04, 18897.28, 13101.59, 15164.50, 0.00, 0.00, 0.00
139, -3314.90, 27446.06, 11350.64, -1931.39, 21801.64, 12289.19, 19276.93, 358.97, -1358.32, 669.41, 56412.58, -4547.24, -244.04, 18897.28, 13101.59, 15164.50, 0.00, 0.00, 0.00
140, -3314.90, 27446.06, 11350.64, -1931.39, 21801.64, 12289.19, 19276.93, 358.97, -1352.66, 673.77, 56332.14, -4540.20, -235.01, 18911.79, 13113.86, 15077.88, 0.78, 0.53, -0.21
141, -3325.63, 27421.46, 11293.40, -1936.40, 21799.05, 12298.35, 19272.30, 353.14, -1352.66, 673.77, 56332.14, -4540.20, -235.01, 18911.79, 13113.86, 15077.88, 0.00, 0.00, 0.00
142, -3325.63, 27421.46, 11293.40, -1936.40, 21799.05, 12298.35, 19272.30, 353.14, -1365.83, 652.47, 56391.26, -4571.13, -256.53, 18861.43, 13093.27, 15147.78, 0.00, 0.00, 0.00
143, -3345.61, 27432.38, 11353.32, -1957.83, 21779.63, 12270.33, 19288.26, 331.79, -1365.83, 652.47, 56391.26, -4571.13, -256.53, 18861.43, 13093.27, 15147.78, 0.00, 0.00, 0.00
144, -3345.61, 27432.38, 11353.32, -1957.83, 21779.63, 12270.33, 19288.26, 331.79, -1377.54, 635.97, 56354.80, -4579.67, -267.51, 18871.31, 13079.41, 15095.23, 0.00, 0.00, 0.00
145, -3339.71, 27399.17, 11300.35, -1949.12, 21789.02, 12285.46, 19251.98, 348.44, -1377.54, 635.97, 56354.80, -4579.67, -267.51, 18871.31, 13079.41, 15095.23, 0.00, 0.00, 0.00
146, -3339.71, 27399.17, 11300.35, -1949.12, 21789.02, 12285.46, 19251.98, 348.44, -1367.52, 648.83, 56359.09, -4570.26, -255.88, 18872.72, 13096.18, 15116.64, 0.00, 0.00, 0.00
147, -3337.74, 27431.98, 11344.49, -1952.38, 21792.30, 12279.24, 19296.30, 347.55, -1367.52, 648.83, 56359.09, -4570.26, -255.88, 18872.72, 13096.18, 15116.64, 0.00, 0.00, 0.00
148, -3337.74, 27431.98, 11344.49, -1952.38, 21792.30, 12279.24, 19296.30, 347.55, -1363.12, 655.13, 56345.86, -4565.75, -258.83, 18878.73, 13085.83, 15101.91, 0.00, 0.00, 0.00
149, -3330.10, 27416.11, 11288.12, -1952.80, 21786.13, 12287.00, 19240.58, 347.23, -1363.12, 655.13, 56345.86, -4565.75, -258.83, 18878.73, 13085.83, 15101.91, 0.00, 0.00, 0.00
150, -3330.10, 27416.11, 11288.12, -1952.80, 21786.13, 12287.00, 19240.58, 347.23, -1355.01, 666.24, 56350.91, -4558.57, -250.21, 18883.33, 13096.36, 15105.80, 0.78, 0.54, -0.21
151, -3324.11, 27454.78, 11342.35, -1944.18, 21802.18, 12293.35, 19299.39, 364.42, -1355.01, 666.24, 56350.91, -4558.57, -250.21, 18883.33, 13096.36, 15105.80, 0.00, 0.00, 0.00
152, -3324.11, 27454.78, 11342.35, -1944.18, 21802.18, 12293.35, 19299.39, 364.42, -1353.00, 666.26, 56378.96, -4554.61, -244.95, 18896.34, 13104.11, 15134.54, 0.00, 0.00, 0.00
153, -3318.41, 27428.72, 11296.64, -1939.15, 21798.98, 12292.21, 19255.11, 371.53, -1353.00, 666.26, 56378.96, -4554.61, -244.95, 18896.34, 13104.11, 15134.54, 0.00, 0.00, 0.00
154, -3318.41, 27428.72, 11296.64, -1939.15, 21798.98, 12292.21, 19255.11, 371.53, -1354.74, 666.69, 56353.93, -4558.50, -244.57, 18878.19, 13104.40, 15094.22, 0.00, 0.00, 0.00
155, -3333.74, 27450.11, 11336.36, -1951.55, 21798.29, 12279.89, 19298.99, 338.83, -1354.74, 666.69, 56353.93, -4558.50, -244.57, 18878.19, 13104.40, 15094.22, 0.00, 0.00, 0.00
156, -3333.74, 27450.11, 11336.36, -1951.55, 21798.29, 12279.89, 19298.99, 338.83, -1371.91, 654.39, 56392.89, -4567.58, -258.59, 18879.31, 13095.42, 15143.37, 0.00, 0.00, 0.00
157, -3334.88, 27417.74, 11292.79, -1946.70, 21788.05, 12294.15, 19240.72, 346.43, -1371.91, 654.39, 56392.89, -4567.58, -258.59, 18879.31, 13095.42, 15143.37, 0.00, 0.00, 0.00
158, -3334.88, 27417.74, 11292.79, -1946.70, 21788.05, 12294.15, 19240.72, 346.43, -1373.81, 647.73, 56341.21, -4573.19, -258.34, 18872.76, 13096.00, 15084.23, 0.00, 0.00, 0.00
159, -3342.39, 27435.94, 11331.86, -1951.24, 21793.33, 12281.75, 19283.74, 333.91, -1373.81, 647.73, 56341.21, -4573.19, -258.34, 18872.76, 13096.00, 15084.23, 0.00, 0.00, 0.00
160, -3342.39, 27435.94, 11331.86, -1951.24, 21793.33, 12281.75, 19283.74, 333.91, -1375.77, 646.77, 56401.70, -4571.36, -260.22, 18879.67, 13095.10, 15176.25, 0.78, 0.53, -0.21
161, -3338.43, 27428.12, 11322.83, -1942.39, 21781.53, 12299.29, 19233.74, 351.95, -1375.77, 646.77, 56401.70, -4571.36, -260.22, 18879.67, 13095.10, 15176.25, 0.00, 0.00, 0.00
162, -3338.43, 27428.12, 11322.83, -1942.39, 21781.53, 12299.29, 19233.74, 351.95, -1371.73, 653.50, 56340.63, -4560.07, -251.48, 18891.67, 13106.10, 15096.75, 0.00, 0.00, 0.00
163, -3336.40, 27443.34, 11346.06, -1940.06, 21794.94, 12290.08, 19289.24, 351.12, -1371.73, 653.50, 56340.63, -4560.07, -251.48, 18891.67, 13106.10, 15096.75, 0.00, 0.00, 0.00
164, -3336.40, 27443.34, 11346.06, -1940.06, 21794.94, 12290.08, 19289.24, 351.12, -1371.70, 650.46, 56405.27, -4561.10, -252.04, 18886.69, 13103.58, 15185.73, 0.00, 0.00, 0.00
165, -3323.19, 27421.81, 11301.69, -1934.68, 21790.78, 12302.67, 19242.06, 361.45, -1371.70, 650.46, 56405.27, -4561.10, -252.04, 18886.69, 13103.58, 15185.73, 0.00, 0.00, 0.00
166, -3323.19, 27421.81, 11301.69, -1934.68, 21790.78, 12302.67, 19242.06, 361.45, -1369.74, 653.30, 56324.14, -4561.88, -250.83, 18881.43, 13101.50, 15066.44, 0.00, 0.00, 0.00
167, -3342.88, 27440.36, 11329.32, -1952.11, 21786.07, 12271.60, 19285.24, 337.20, -1369.74, 653.30, 56324.14, -4561.88, -250.83, 18881.43, 13101.50, 15066.44, 0.00, 0.00, 0.00
168, -3342.88, 27440.36, 11329.32, -1952.11, 21786.07, 12271.60, 19285.24, 337.20, -1380.31, 640.22, 56421.88, -4574.42, -267.22, 18870.57, 13089.27, 15181.28, 0.00, 0.00, 0.00
169, -3322.41, 27428.03, 11311.01, -1937.02, 21785.11, 12299.63, 19244.56, 363.93, -1380.31, 640.22, 56421.88, -4574.42, -267.22, 18870.57, 13089.27, 15181.28, 0.00, 0.00, 0.00
170, -3322.41, 27428.03, 11311.01, -1937.02, 21785.11, 12299.63, 19244.56, 363.93, -1355.30, 665.66, 56314.70, -4545.56, -237.93, 18908.61, 13117.79, 15051.24, 0.78, 0.54, -0.21
171, -3322.74, 27449.08, 11309.02, -1927.73, 21802.74, 12299.40, 19290.07, 360.33, -1355.30, 665.66, 56314.70, -4545.56, -237.93, 18908.61, 13117.79, 15051.24, 0.00, 0.00, 0.00
172, -3322.74, 27449.08, 11309.02, -1927.73, 21802.74, 12299.40, 19290.07, 360.33, -1369.22, 660.23, 56422.98, -4562.19, -253.80, 18893.82, 13101.68, 15195.48, 0.00, 0.00, 0.00
173, -3325.96, 27434.71, 11319.28, -1930.32, 21789.73, 12306.92, 19251.76, 369.65, -1369.22, 660.23, 56422.98, -4562.19, -253.80, 18893.82, 13101.68, 15195.48, 0.00, 0.00, 0.00
174, -3325.96, 27434.71, 11319.28, -1930.32, 21789.73, 12306.92, 19251.76, 369.65, -1363.90, 657.52, 56327.31, -4555.49, -246.61, 18899.63, 13108.56, 15070.19, 0.00, 0.00, 0.00
175, -3331.35, 27429.59, 11310.79, -1936.78, 21795.92, 12289.66, 19282.20, 354.01, -1363.90, 657.52, 56327.31, -4555.49, -246.61, 18899.63, 13108.56, 15070.19, 0.00, 0.00, 0.00
176, -3331.35, 27429.59, 11310.79, -1936.78, 21795.92, 12289.66, 19282.20, 354.01, -1370.74, 651.22, 56426.69, -4568.50, -257.92, 18875.53, 13096.76, 15197.46, 0.00, 0.00, 0.00
177, -3336.94, 27418.95, 11325.16, -1948.16, 21783.43, 12288.05, 19260.81, 359.46, -1370.74, 651.22, 56426.69, -4568.50, -257.92, 18875.53, 13096.76, 15197.46, 0.00, 0.00, 0.00
178, -3336.94, 27418.95, 11325.16, -1948.16, 21783.43, 12288.05, 19260.81, 359.46, -1369.63, 653.97, 56330.21, -4559.98, -251.68, 18890.87, 13099.93, 15066.89, 0.00, 0.00, 0.00
179, -3333.63, 27419.44, 11290.25, -1948.09, 21791.21, 12266.66, 19289.44, 353.20, -1369.63, 653.97, 56330.21, -4559.98, -251.68, 18890.87, 13099.93, 15066.89, 0.00, 0.00, 0.00
180, -3333.63, 27419.44, 11290.25, -1948.09, 21791.21, 12266.66, 19289.44, 353.20, -1373.94, 638.84, 56431.40, -4579.16, -262.43, 18862.95, 13090.21, 15192.93, 0.78, 0.53, -0.21
181, -3335.10, 27425.99, 11325.00, -1952.54, 21780.05, 12291.98, 19283.63, 358.68, -1373.94, 638.84, 56431.40, -4579.16, -262.43, 18862.95, 13090.21, 15192.93, 0.00, 0.00, 0.00
182, -3335.10, 27425.99, 11325.00, -1952.54, 21780.05, 12291.98, 19283.63, 358.68, -1369.27, 645.79, 56334.22, -4566.77, -257.13, 18885.97, 13095.80, 15069.21, 0.00, 0.00, 0.00
183, -3332.31, 27414.53, 11265.14, -1953.92, 21786.49, 12282.69, 19269.57, 354.63, -1369.27, 645.79, 56334.22, -4566.77, -257.13, 18885.97, 13095.80, 15069.21, 0.00, 0.00, 0.00
184, -3332.31, 27414.53, 11265.14, -1953.92, 21786.49, 12282.69, 19269.57, 354.63, -1373.07, 638.28, 56417.14, -4576.74, -264.33, 18865.52, 13090.34, 15176.79, 0.00, 0.00, 0.00
185, -3333.14, 27432.45, 11308.26, -1953.10, 21786.09, 12281.01, 19279.41, 348.28, -1373.07, 638.28, 56417.14, -4576.74, -264.33, 18865.52, 13090.34, 15176.79, 0.00, 0.00, 0.00
186, -3333.14, 27432.45, 11308.26, -1953.10, 21786.09, 12281.01, 19279.41, 348.28, -1361.31, 652.34, 56352.43, -4554.57, -247.63, 18895.78, 13110.06, 15087.11, 0.00, 0.00, 0.00
187, -3313.53, 27422.55, 11255.06, -1928.84, 21806.92, 12304.08, 19280.41, 370.73, -1361.31, 652.34, 56352.43, -4554.57, -247.63, 18895.78, 13110.06, 15087.11, 0.00, 0.00, 0.00
188, -3313.53, 27422.55, 11255.06, -1928.84, 21806.92, 12304.08, 19280.41, 370.73, -1352.41, 656.11, 56416.43, -4563.09, -241.67, 18878.91, 13114.97, 15162.60, 0.00, 0.00, 0.00
189, -3324.55, 27438.89, 11295.99, -1942.72, 21792.84, 12287.49, 19284.26, 353.18, -1352.41, 656.11, 56416.43, -4563.09, -241.67, 18878.91, 13114.97, 15162.60, 0.00, 0.00, 0.00
190, -3324.55, 27438.89, 11295.99, -1942.72, 21792.84, 12287.49, 19284.26, 353.18, -1363.08, 655.67, 56359.65, -4555.71, -247.14, 18899.47, 13109.01, 15090.00, 0.78, 0.53, -0.21
191, -3327.08, 27423.47, 11240.76, -1926.43, 21796.06, 12303.76, 19257.97, 367.26, -1363.08, 655.67, 56359.65, -4555.71, -247.14, 18899.47, 13109.01, 15090.00, 0.00, 0.00, 0.00
192, -3327.08, 27423.47, 11240.76, -1926.43, 21796.06, 12303.76, 19257.97, 367.26, -1373.34, 656.60, 56415.96, -4557.81, -249.76, 18892.95, 13112.38, 15160.54, 0.00, 0.00, 0.00
193, -3328.09, 27448.86, 11306.38, -1931.55, 21793.29, 12293.73, 19295.70, 358.66, -1373.34, 656.60, 56415.96, -4557.81, -249.76, 18892.95, 13112.38, 15160.54, 0.00, 0.00, 0.00
194, -3328.09, 27448.86, 11306.38, -1931.55, 21793.29, 12293.73, 19295.70, 358.66, -1369.09, 655.40, 56399.26, -4557.81, -252.89, 18897.21, 13105.88, 15131.73, 0.00, 0.00, 0.00
195, -3320.78, 27425.34, 11253.23, -1933.45, 21793.08, 12296.23, 19251.54, 357.38, -1369.09, 655.40, 56399.26, -4557.81, -252.89, 18897.21, 13105.88, 15131.73, 0.00, 0.00, 0.00
196, -3320.78, 27425.34, 11253.23, -1933.45, 21793.08, 12296.23, 19251.54, 357.38, -1369.98, 656.69, 56403.35, -4558.77, -246.14, 18891.27, 13111.96, 15143.37, 0.00, 0.00, 0.00
197, -3326.27, 27455.76, 11303.77, -1940.04, 21794.96, 12286.93, 19290.27, 350.81, -1369.98, 656.69, 56403.35, -4558.77, -246.14, 18891.27, 13111.96, 15143.37, 0.00, 0.00, 0.00
198, -3326.27, 27455.76, 11303.77, -1940.04, 21794.96, 12286.93, 19290.27, 350.81, -1367.68, 655.22, 56405.36, -4558.71, -250.65, 18893.55, 13108.83, 15155.40, 0.00, 0.00, 0.00
199, -3305.29, 27447.85, 11263.67, -1920.48, 21794.92, 12314.22, 19250.80, 378.88, -1367.68, 655.22, 56405.36, -4558.71, -250.65, 18893.55, 13108.83, 15155.40, 0.00, 0.00, 0.00
200, -3305.29, 27447.85, 11263.67, -1920.48, 21794.92, 12314.22, 19250.80, 378.88, -1352.71, 673.17, 56386.21, -4532.53, -232.37, 18918.27, 13132.36, 15142.64, 0.78, 0.53, -0.21
201, -3308.73, 27479.75, 11310.79, -1918.79, 21806.00, 12302.18, 19305.78, 363.15, -1352.71, 673.17, 56386.21, -4532.53, -232.37, 18918.27, 13132.36, 15142.64, 0.00, 0.00, 0.00
202, -3308.73, 27479.75, 11310.79, -1918.79, 21806.00, 12302.18, 19305.78, 363.15, -1366.30, 653.32, 56418.02, -4550.90, -249.45, 18902.96, 13113.50, 15176.70, 0.00, 0.00, 0.00
203, -3307.52, 27452.97, 11271.63, -1924.66, 21796.79, 12303.61, 19249.57, 373.83, -1366.30, 653.32, 56418.02, -4550.90, -249.45, 18902.96, 13113.50, 15176.70, 0.00, 0.00, 0.00
204, -3307.52, 27452.97, 11271.63, -1924.66, 21796.79, 12303.61, 19249.57, 373.83, -1361.18, 658.80, 56377.85, -4552.54, -246.25, 18894.11, 13121.08, 15118.03, 0.00, 0.00, 0.00
205, -3318.54, 27469.35, 11306.74, -1937.02, 21799.77, 12281.99, 19305.16, 360.38, -1361.18, 658.80, 56377.85, -4552.54, -246.25, 18894.11, 13121.08, 15118.03, 0.00, 0.00, 0.00
206, -3318.54, 27469.35, 11306.74, -1937.02, 21799.77, 12281.99, 19305.16, 360.38, -1367.37, 641.72, 56423.56, -4561.79, -252.84, 18892.21, 13112.96, 15171.29, 0.00, 0.00, 0.00
207, -3307.68, 27443.76, 11258.48, -1926.39, 21795.52, 12312.30, 19260.95, 378.10, -1367.37, 641.72, 56423.56, -4561.79, -252.84, 18892.21, 13112.96, 15171.29, 0.00, 0.00, 0.00
208, -3307.68, 27443.76, 11258.48, -1926.39, 21795.52, 12312.30, 19260.95, 378.10, -1365.09, 651.78, 56360.55, -4557.36, -246.83, 18893.17, 13115.47, 15087.78, 0.00, 0.00, 0.00
209, -3319.73, 27463.19, 11284.75, -1940.24, 21803.25, 12282.57, 19314.48, 354.66, -1365.09, 651.78, 56360.55, -4557.36, -246.83, 18893.17, 13115.47, 15087.78, 0.00, 0.00, 0.00
210, -3319.73, 27463.19, 11284.75, -1940.24, 21803.25, 12282.57, 19314.48, 354.66, -1373.27, 637.61, 56420.96, -4567.15, -256.31, 18890.49, 13104.94, 15167.94, 0.79, 0.53, -0.21
211, -3322.34, 27434.04, 11256.03, -1943.46, 21788.08, 12291.13, 19264.65, 368.45, -1373.27, 637.61, 56420.96, -4567.15, -256.31, 18890.49, 13104.94, 15167.94, 0.00, 0.00, 0.00
212, -3322.34, 27434.04, 11256.03, -1943.46, 21788.08, 12291.13, 19264.65, 368.45, -1376.33, 637.56, 56357.46, -4569.79, -258.34, 18882.87, 13102.37, 15074.71, 0.00, 0.00, 0.00
213, -3334.34, 27441.91, 11288.12, -1955.91, 21796.50, 12264.33, 19314.52, 338.14, -1376.33, 637.56, 56357.46, -4569.79, -258.34, 18882.87, 13102.37, 15074.71, 0.00, 0.00, 0.00
214, -3334.34, 27441.91, 11288.12, -1955.91, 21796.50, 12264.33, 19314.52, 338.14, -1388.80, 626.07, 56437.10, -4577.75, -263.28, 18874.75, 13096.36, 15183.05, 0.00, 0.00, 0.00
215, -3331.33, 27427.85, 11285.04, -1949.39, 21788.03, 12285.48, 19270.94, 366.59, -1388.80, 626.07, 56437.10, -4577.75, -263.28, 18874.75, 13096.36, 15183.05, 0.00, 0.00, 0.00
216, -3331.33, 27427.85, 11285.04, -1949.39, 21788.03, 12285.48, 19270.94, 366.59, -1383.68, 638.39, 56348.12, -4563.11, -254.97, 18892.41, 13106.73, 15075.13, 0.00, 0.00, 0.00
217, -3321.60, 27446.58, 11282.74, -1934.23, 21803.88, 12294.02, 19310.95, 368.07, -1383.68, 638.39, 56348.12, -4563.11, -254.97, 18892.41, 13106.73, 15075.13, 0.00, 0.00, 0.00
218, -3321.60, 27446.58, 11282.74, -1934.23, 21803.88, 12294.02, 19310.95, 368.07, -1373.96, 649.07, 56443.99, -4557.95, -251.52, 18895.83, 13110.15, 15199.19, 0.00, 0.00, 0.00
219, -3324.71, 27438.15, 11291.63, -1939.46, 21786.71, 12295.07, 19266.40, 365.56, -1373.96, 649.07, 56443.99, -4557.95, -251.52, 18895.83, 13110.15, 15199.19, 0.00, 0.00, 0.00
220, -3324.71, 27438.15, 11291.63, -1939.46, 21786.71, 12295.07, 19266.40, 365.56, -1367.41, 659.69, 56354.20, -4545.00, -242.92, 18913.96, 13117.57, 15080.03, 0.78, 0.53, -0.21
221, -3309.96, 27449.15, 11274.17, -1919.39, 21810.34, 12309.33, 19301.16, 368.02, -1367.41, 659.69, 56354.20, -4545.00, -242.92, 18913.96, 13117.57, 15080.03, 0.00, 0.00, 0.00
222, -3309.96, 27449.15, 11274.17, -1919.39, 21810.34, 12309.33, 19301.16, 368.02, -1372.26, 658.64, 56446.64, -4546.32, -243.81, 18907.79, 13117.17, 15208.31, 0.00, 0.00, 0.00
223, -3311.95, 27448.70, 11293.08, -1922.61, 21799.30, 12311.23, 19276.17, 375.69, -1372.26, 658.64, 56446.64, -4546.32, -243.81, 18907.79, 13117.17, 15208.31, 0.00, 0.00, 0.00
224, -3311.95, 27448.70, 11293.08, -1922.61, 21799.30, 12311.23, 19276.17, 375.69, -1372.37, 658.68, 56351.47, -4536.80, -238.40, 18919.83, 13122.49, 15082.93, 0.00, 0.00, 0.00
225, -3313.71, 27449.30, 11270.46, -1922.88, 21806.96, 12293.30, 19296.35, 365.70, -1372.37, 658.68, 56351.47, -4536.80, -238.40, 18919.83, 13122.49, 15082.93, 0.00, 0.00, 0.00
226, -3313.71, 27449.30, 11270.46, -1922.88, 21806.96, 12293.30, 19296.35, 365.70, -1386.52, 647.57, 56437.35, -4555.75, -252.89, 18892.45, 13108.00, 15194.67, 0.00, 0.00, 0.00
227, -3313.98, 27451.50, 11302.27, -1925.85, 21793.80, 12295.81, 19279.32, 370.57, -1386.52, 647.57, 56437.35, -4555.75, -252.89, 18892.45, 13108.00, 15194.67, 0.00, 0.00, 0.00
228, -3313.98, 27451.50, 11302.27, -1925.85, 21793.80, 12295.81, 19279.32, 370.57, -1376.09, 652.18, 56359.25, -4544.71, -243.30, 18907.43, 13116.50, 15086.29, 0.00, 0.00, 0.00
229, -3301.73, 27460.26, 11296.55, -1911.14, 21805.33, 12295.67, 19295.48, 374.37, -1376.09, 652.18, 56359.25, -4544.71, -243.30, 18907.43, 13116.50, 15086.29, 0.00, 0.00, 0.00
230, -3301.73, 27460.26, 11296.55, -1911.14, 21805.33, 12295.67, 19295.48, 374.37, -1363.14, 665.72, 56450.13, -4530.05, -236.75, 18915.25, 13123.51, 15194.04, 0.79, 0.53, -0.21
231, -3297.84, 27471.46, 11339.42, -1909.29, 21801.02, 12305.71, 19293.76, 378.04, -1363.14, 665.72, 56450.13, -4530.05, -236.75, 18915.25, 13123.51, 15194.04, 0.00, 0.00, 0.00
232, -3297.84, 27471.46, 11339.42, -1909.29, 21801.02, 12305.71, 19293.76, 378.04, -1365.87, 650.15, 56373.49, -4539.73, -240.37, 18915.28, 13118.08, 15089.75, 0.00, 0.00, 0.00
233, -3313.56, 27446.67, 11304.35, -1918.45, 21795.21, 12300.32, 19270.91, 365.70, -1365.87, 650.15, 56373.49, -4539.73, -240.37, 18915.28, 13118.08, 15089.75, 0.00, 0.00, 0.00
234, -3313.56, 27446.67, 11304.35, -1918.45, 21795.21, 12300.32, 19270.91, 365.70, -1376.02, 629.72, 56432.74, -4562.91, -252.35, 18886.35, 13106.15, 15171.65, 0.00, 0.00, 0.00
235, -3329.38, 27454.31, 11349.77, -1936.33, 21789.73, 12283.74, 19270.20, 353.45, -1376.02, 629.72, 56432.74, -4562.91, -252.35, 18886.35, 13106.15, 15171.65, 0.00, 0.00, 0.00
236, -3329.38, 27454.31, 11349.77, -1936.33, 21789.73, 12283.74, 19270.20, 353.45, -1381.90, 623.86, 56369.64, -4565.30, -258.88, 18891.00, 13103.06, 15090.74, 0.00, 0.00, 0.00
237, -3330.63, 27431.54, 11311.84, -1931.44, 21788.37, 12288.74, 19252.63, 361.72, -1381.90, 623.86, 56369.64, -4565.30, -258.88, 18891.00, 13103.06, 15090.74, 0.00, 0.00, 0.00
238, -3330.63, 27431.54, 11311.84, -1931.44, 21788.37, 12288.74, 19252.63, 361.72, -1382.77, 626.03, 56412.80, -4564.92, -259.55, 18888.50, 13106.53, 15156.65, 0.00, 0.00, 0.00
239, -3331.28, 27440.19, 11346.50, -1934.81, 21791.03, 12288.52, 19286.85, 364.83, -1382.77, 626.03, 56412.80, -4564.92, -259.55, 18888.50, 13106.53, 15156.65, 0.00, 0.00, 0.00
240, -3331.28, 27440.19, 11346.50, -1934.81, 21791.03, 12288.52, 19286.85, 364.83, -1388.07, 618.58, 56366.34, -4566.77, -256.96, 18895.38, 13110.68, 15100.01, 0.79, 0.53, -0.22
241, -3328.71, 27414.37, 11288.52, -1933.11, 21794.98, 12287.07, 19271.54, 369.12, -1388.07, 618.58, 56366.34, -4566.77, -256.96, 18895.38, 13110.68, 15100.01, 0.00, 0.00, 0.00
242, -3328.71, 27414.37, 11288.52, -1933.11, 21794.98, 12287.07, 19271.54, 369.12, -1388.11, 622.70, 56399.98, -4571.58, -257.34, 18886.66, 13105.43, 15139.82, 0.00, 0.00, 0.00
243, -3337.58, 27426.71, 11329.76, -1947.17, 21792.30, 12273.03, 19310.39, 356.67, -1388.11, 622.70, 56399.98, -4571.58, -257.34, 18886.66, 13105.43, 15139.82, 0.00, 0.00, 0.00
244, -3337.58, 27426.71, 11329.76, -1947.17, 21792.30, 12273.03, 19310.39, 356.67, -1385.00, 615.95, 56379.41, -4570.55, -256.64, 18889.93, 13100.63, 15113.27, 0.00, 0.00, 0.00
245, -3330.70, 27401.65, 11273.66, -1935.37, 21796.53, 12288.52, 19271.45, 369.43, -1385.00, 615.95, 56379.41, -4570.55, -256.64, 18889.93, 13100.63, 15113.27, 0.00, 0.00, 0.00
246, -3330.70, 27401.65, 11273.66, -1935.37, 21796.53, 12288.52, 19271.45, 369.43, -1385.12, 618.52, 56387.10, -4569.37, -254.16, 18885.84, 13104.31, 15127.21, 0.00, 0.00, 0.00
247, -3340.49, 27427.94, 11326.01, -1941.92, 21799.81, 12267.38, 19313.76, 358.54, -1385.12, 618.52, 56387.10, -4569.37, -254.16, 18885.84, 13104.31, 15127.21, 0.00, 0.00, 0.00
248, -3340.49, 27427.94, 11326.01, -1941.92, 21799.81, 12267.38, 19313.76, 358.54, -1390.52, 614.83, 56390.30, -4571.04, -259.93, 18893.84, 13096.29, 15136.20, 0.00, 0.00, 0.00
249, -3333.70, 27401.16, 11264.50, -1942.55, 21795.10, 12280.85, 19262.15, 373.18, -1390.52, 614.83, 56390.30, -4571.04, -259.93, 18893.84, 13096.29, 15136.20, 0.00, 0.00, 0.00
250, -3333.70, 27401.16, 11264.50, -1942.55, 21795.10, 12280.85, 19262.15, 373.18, -1386.48, 621.49, 56369.69, -4569.70, -252.11, 18879.87, 13106.62, 15112.66, 0.79, 0.54, -0.22
251, -3330.61, 27439.49, 11322.32, -1935.93, 21809.83, 12286.53, 19324.31, 363.08, -1386.48, 621.49, 56369.69, -4569.70, -252.11, 18879.87, 13106.62, 15112.66, 0.00, 0.00, 0.00
252, -3330.61, 27439.49, 11322.32, -1935.93, 21809.83, 12286.53, 19324.31, 363.08, -1380.64, 635.10, 56416.72, -4548.98, -246.54, 18919.88, 13111.94, 15170.73, 0.00, 0.00, 0.00
253, -3309.31, 27432.00, 11284.08, -1913.49, 21807.01, 12321.11, 19270.91, 391.60, -1380.64, 635.10, 56416.72, -4548.98, -246.54, 18919.88, 13111.94, 15170.73, 0.00, 0.00, 0.00
254, -3309.31, 27432.00, 11284.08, -1913.49, 21807.01, 12321.11, 19270.91, 391.60, -1367.01, 653.12, 56384.33, -4538.12, -235.14, 18926.61, 13122.26, 15117.42, 0.00, 0.00, 0.00
255, -3321.04, 27465.91, 11336.18, -1919.59, 21802.27, 12297.91, 19319.48, 373.77, -1367.01, 653.12, 56384.33, -4538.12, -235.14, 18926.61, 13122.26, 15117.42, 0.00, 0.00, 0.00
0, -3321.04, 27465.91, 11336.18, -1919.59, 21802.27, 12297.91, 19319.48, 373.77, -1383.33, 642.59, 56445.30, -4548.89, -250.52, 18917.82, 13108.67, 15190.18, 0.00, 0.00, 0.00
1, -3318.97, 27434.17, 11308.33, -1916.95, 21796.86, 12310.45, 19266.76, 385.66, -1383.33, 642.59, 56445.30, -4548.89, -250.52, 18917.82, 13108.67, 15190.18, 0.00, 0.00, 0.00
2, -3318.97, 27434.17, 11308.33, -1916.95, 21796.86, 12310.45, 19266.76, 385.66, -1379.80, 649.30, 56380.08, -4545.41, -243.88, 18922.47, 13117.88, 15104.01, 0.00, 0.00, 0.00
3, -3332.24, 27453.75, 11344.94, -1924.11, 21800.15, 12290.42, 19310.01, 360.44, -1379.80, 649.30, 56380.08, -4545.41, -243.88, 18922.47, 13117.88, 15104.01, 0.00, 0.00, 0.00
4, -3332.24, 27453.75, 11344.94, -1924.11, 21800.15, 12290.42, 19310.01, 360.44, -1396.27, 633.14, 56455.43, -4563.62, -264.44, 18906.69, 13095.91, 15201.93, 0.78, 0.53, -0.22
5, -3324.67, 27432.94, 11331.64, -1917.91, 21788.97, 12307.29, 19255.94, 376.65, -1396.27, 633.14, 56455.43, -4563.62, -264.44, 18906.69, 13095.91, 15201.93, 0.00, 0.00, 0.00
6, -3324.67, 27432.94, 11331.64, -1917.91, 21788.97, 12307.29, 19255.94, 376.65, -1373.98, 646.05, 56365.20, -4541.36, -242.49, 18933.40, 13120.43, 15086.47, 0.00, 0.00, 0.00
7, -3321.87, 27451.05, 11338.86, -1911.59, 21808.84, 12304.90, 19319.13, 379.98, -1373.98, 646.05, 56365.20, -4541.36, -242.49, 18933.40, 13120.43, 15086.47, 0.00, 0.00, 0.00
8, -3321.87, 27451.05, 11338.86, -1911.59, 21808.84, 12304.90, 19319.13, 379.98, -1376.55, 641.36, 56449.57, -4544.00, -247.10, 18927.43, 13120.00, 15195.01, 0.00, 0.00, 0.00
9, -3312.15, 27435.09, 11307.14, -1907.90, 21803.37, 12321.64, 19281.66, 399.11, -1376.55, 641.36, 56449.57, -4544.00, -247.10, 18927.43, 13120.00, 15195.01, 0.00, 0.00, 0.00
10, -3312.15, 27435.09, 11307.14, -1907.90, 21803.37, 12321.64, 19281.66, 399.11, -1365.51, 648.58, 56346.73, -4534.16, -231.59, 18939.71, 13133.44, 15054.26, 0.00, 0.00, 0.00
11, -3319.99, 27449.01, 11295.52, -1913.98, 21810.72, 12303.36, 19313.38, 376.63, -1365.51, 648.58, 56346.73, -4534.16, -231.59, 18939.71, 13133.44, 15054.26, 0.00, 0.00, 0.00
12, -3319.99, 27449.01, 11295.52, -1913.98, 21810.72, 12303.36, 19313.38, 376.63, -1380.71, 633.90, 56460.01, -4552.45, -251.97, 18914.54, 13109.12, 15184.30, 0.00, 0.00, 0.00
13, -3322.34, 27442.13, 11315.32, -1925.49, 21792.23, 12290.15, 19267.38, 373.07, -1380.71, 633.90, 56460.01, -4552.45, -251.97, 18914.54, 13109.12, 15184.30, 0.00, 0.00, 0.00
14, -3322.34, 27442.13, 11315.32, -1925.49, 21792.23, 12290.15, 19267.38, 373.07, -1374.41, 634.39, 56349.04, -4548.85, -244.84, 18921.42, 13115.49, 15043.21, 0.78, 0.53, -0.22
15, -3326.70, 27439.85, 11297.46, -1927.86, 21797.49, 12296.21, 19293.49, 370.08, -1374.41, 634.39, 56349.04, -4548.85, -244.84, 18921.42, 13115.49, 15043.21, 0.00, 0.00, 0.00
16, -3326.70, 27439.85, 11297.46, -1927.86, 21797.49, 12296.21, 19293.49, 370.08, -1384.47, 627.66, 56429.68, -4562.84, -254.52, 18895.90, 13105.70, 15160.25, 0.00, 0.00, 0.00
17, -3325.72, 27429.41, 11299.66, -1935.08, 21789.96, 12291.54, 19271.09, 366.79, -1384.47, 627.66, 56429.68, -4562.84, -254.52, 18895.90, 13105.70, 15160.25, 0.00, 0.00, 0.00
18, -3325.72, 27429.41, 11299.66, -1935.08, 21789.96, 12291.54, 19271.09, 366.79, -1370.72, 632.82, 56328.65, -4552.98, -238.72, 18910.67, 13120.54, 15028.26, 0.00, 0.00, 0.00
19, -3329.72, 27424.38, 11268.99, -1932.11, 21806.21, 12284.70, 19295.79, 360.20, -1370.72, 632.82, 56328.65, -4552.98, -238.72, 18910.67, 13120.54, 15028.26, 0.00, 0.00, 0.00
20, -3329.72, 27424.38, 11268.99, -1932.11, 21806.21, 12284.70, 19295.79, 360.20, -1385.85, 616.75, 56431.52, -4572.61, -255.26, 18892.68, 13108.60, 15164.90, 0.00, 0.00, 0.00
21, -3334.01, 27426.21, 11306.36, -1935.46, 21791.21, 12299.07, 19283.25, 381.81, -1385.85, 616.75, 56431.52, -4572.61, -255.26, 18892.68, 13108.60, 15164.90, 0.00, 0.00, 0.00
22, -3334.01, 27426.21, 11306.36, -1935.46, 21791.21, 12299.07, 19283.25, 381.81, -1380.35, 626.45, 56348.99, -4556.63, -248.93, 18919.66, 13115.85, 15072.14, 0.00, 0.00, 0.00
23, -3325.56, 27419.53, 11277.64, -1925.40, 21794.74, 12301.15, 19284.30, 377.43, -1380.35, 626.45, 56348.99, -4556.63, -248.93, 18919.66, 13115.85, 15072.14, 0.77, 0.53, -0.21
24, -3325.56, 27419.53, 11277.64, -1925.40, 21794.74, 12301.15, 19284.30, 377.43, -1366.90, 636.51, 56435.98, -4552.09, -241.26, 18917.20, 13126.93, 15190.89, 0.00, 0.00, 0.00
25, -3323.44, 27439.76, 11332.94, -1924.60, 21793.73, 12305.71, 19302.63, 381.21, -1366.90, 636.51, 56435.98, -4552.09, -241.26, 18917.20, 13126.93, 15190.89, 0.00, 0.00, 0.00
26, -3323.44, 27439.76, 11332.94, -1924.60, 21793.73, 12305.71, 19302.63, 381.21, -1366.97, 625.09, 56371.70, -4553.52, -241.44, 18925.47, 13123.11, 15110.85, 0.00, 0.00, 0.00
27, -3318.63, 27411.15, 11266.69, -1924.80, 21799.12, 12307.36, 19280.75, 381.10, -1366.97, 625.09, 56371.70, -4553.52, -241.44, 18925.47, 13123.11, 15110.85, 0.00, 0.00, 0.00
28, -3318.63, 27411.15, 11266.69, -1924.80, 21799.12, 12307.36, 19280.75, 381.10, -1362.43, 630.34, 56400.47, -4552.76, -237.40, 18915.30, 13127.42, 15169.14, 0.00, 0.00, 0.00
29, -3322.23, 27424.54, 11287.12, -1929.27, 21798.58, 12299.27, 19301.69, 375.49, -1362.43, 630.34, 56400.47, -4552.76, -237.40, 18915.30, 13127.42, 15169.14, 0.00, 0.00, 0.00
30, -3322.23, 27424.54, 11287.12, -1929.27, 21798.58, 12299.27, 19301.69, 375.49, -1360.22, 636.80, 56351.25, -4541.90, -236.01, 18927.66, 13122.73, 15101.15, 0.00, 0.00, 0.00
31, -3316.17, 27420.61, 11242.44, -1922.43, 21796.41, 12300.39, 19277.26, 374.68, -1360.22, 636.80, 56351.25, -4541.90, -236.01, 18927.66, 13122.73, 15101.15, 0.00, 0.00, 0.00
32, -3316.17, 27420.61, 11242.44, -1922.43, 21796.41, 12300.39, 19277.26, 374.68, -1356.95, 642.68, 56414.44, -4544.31, -242.43, 18917.98, 13116.25, 15172.94, 0.00, 0.00, 0.00
33, -3315.55, 27455.52, 11315.44, -1920.82, 21795.59, 12298.31, 19307.84, 372.07, -1356.95, 642.68, 56414.44, -4544.31, -242.43, 18917.98, 13116.25, 15172.94, 0.78, 0.53, -0.21
34, -3315.55, 27455.52, 11315.44, -1920.82, 21795.59, 12298.31, 19307.84, 372.07, -1350.34, 644.67, 56400.31, -4534.43, -234.76, 18937.04, 13122.35, 15141.61, 0.00, 0.00, 0.00
35, -3308.66, 27437.06, 11272.59, -1912.53, 21797.93, 12306.13, 19270.38, 382.30, -1350.34, 644.67, 56400.31, -4534.43, -234.76, 18937.04, 13122.35, 15141.61, 0.00, 0.00, 0.00
36, -3308.66, 27437.06, 11272.59, -1912.53, 21797.93, 12306.13, 19270.38, 382.30, -1360.80, 639.10, 56420.92, -4548.20, -240.71, 18913.93, 13119.89, 15163.69, 0.00, 0.00, 0.00
37, -3318.16, 27461.06, 11328.42, -1924.75, 21794.56, 12281.63, 19304.55, 367.17, -1360.80, 639.10, 56420.92, -4548.20, -240.71, 18913.93, 13119.89, 15163.69, 0.00, 0.00, 0.00
38, -3318.16, 27461.06, 11328.42, -1924.75, 21794.56, 12281.63, 19304.55, 367.17, -1360.15, 639.35, 56417.41, -4542.52, -238.34, 18927.05, 13123.94, 15156.09, 0.00, 0.00, 0.00
39, -3308.26, 27436.36, 11274.96, -1906.96, 21802.29, 12318.83, 19271.12, 387.56, -1360.15, 639.35, 56417.41, -4542.52, -238.34, 18927.05, 13123.94, 15156.09, 0.00, 0.00, 0.00
40, -3308.26, 27436.36, 11274.96, -1906.96, 21802.29, 12318.83, 19271.12, 387.56, -1351.88, 644.62, 56413.79, -4539.82, -232.10, 18930.81, 13130.38, 15150.46, 0.00, 0.00, 0.00
41, -3316.73, 27459.50, 11336.00, -1915.61, 21807.32, 12297.88, 19318.77, 376.72, -1351.88, 644.62, 56413.79, -4539.82, -232.10, 18930.81, 13130.38, 15150.46, 0.00, 0.00, 0.00
42, -3316.73, 27459.50, 11336.00, -1915.61, 21807.32, 12297.88, 19318.77, 376.72, -1353.67, 628.62, 56432.79, -4546.95, -238.43, 18931.86, 13124.99, 15173.66, 0.00, 0.00, 0.00
43, -3312.06, 27423.94, 11271.36, -1913.09, 21798.56, 12313.62, 19266.22, 390.69, -1353.67, 628.62, 56432.79, -4546.95, -238.43, 18931.86, 13124.99, 15173.66, 0.78, 0.53, -0.22
44, -3312.06, 27423.94, 11271.36, -1913.09, 21798.56, 12313.62, 19266.22, 390.69, -1360.08, 629.13, 56394.10, -4549.03, -238.02, 18924.19, 13124.50, 15127.93, 0.00, 0.00, 0.00
45, -3330.41, 27444.77, 11324.02, -1930.48, 21796.30, 12287.58, 19320.98, 370.39, -1360.08, 629.13, 56394.10, -4549.03, -238.02, 18924.19, 13124.50, 15127.93, 0.00, 0.00, 0.00
46, -3330.41, 27444.77, 11324.02, -1930.48, 21796.30, 12287.58, 19320.98, 370.39, -1374.12, 621.87, 56437.68, -4562.26, -252.24, 18909.06, 13112.11, 15186.60, 0.00, 0.00, 0.00
47, -3318.94, 27418.39, 11280.21, -1926.61, 21788.84, 12302.00, 19270.91, 386.95, -1374.12, 621.87, 56437.68, -4562.26, -252.24, 18909.06, 13112.11, 15186.60, 0.00, 0.00, 0.00
48, -3318.94, 27418.39, 11280.21, -1926.61, 21788.84, 12302.00, 19270.91, 386.95, -1357.02, 631.59, 56377.80, -4558.24, -241.02, 18915.54, 13120.03, 15112.91, 0.00, 0.00, 0.00
49, -3318.81, 27446.11, 11314.21, -1931.19, 21795.50, 12274.15, 19320.94, 366.41, -1357.02, 631.59, 56377.80, -4558.24, -241.02, 18915.54, 13120.03, 15112.91, 0.00, 0.00, 0.00
50, -3318.81, 27446.11, 11314.21, -1931.19, 21795.50, 12274.15, 19320.94, 366.41, -1362.65, 625.18, 56446.00, -4562.73, -246.99, 18909.22, 13115.09, 15198.29, 0.00, 0.00, 0.00
51, -3313.53, 27424.90, 11288.95, -1929.11, 21792.23, 12306.67, 19270.53, 376.85, -1362.65, 625.18, 56446.00, -4562.73, -246.99, 18909.22, 13115.09, 15198.29, 0.00, 0.00, 0.00
52, -3313.53, 27424.90, 11288.95, -1929.11, 21792.23, 12306.67, 19270.53, 376.85, -1361.06, 624.78, 56362.65, -4558.37, -238.58, 18917.35, 13123.94, 15095.43, 0.00, 0.00, 0.00
53, -3317.71, 27440.54, 11305.45, -1929.69, 21803.28, 12293.24, 19317.92, 367.60, -1361.06, 624.78, 56362.65, -4558.37, -238.58, 18917.35, 13123.94, 15095.43, 0.78, 0.53, -0.21
54, -3317.71, 27440.54, 11305.45, -1929.69, 21803.28, 12293.24, 19317.92, 367.60, -1360.10, 619.84, 56433.86, -4557.88, -244.98, 18925.24, 13118.17, 15193.75, 0.00, 0.00, 0.00
55, -3308.84, 27427.56, 11283.07, -1926.81, 21793.15, 12306.33, 19261.32, 379.17, -1360.10, 619.84, 56433.86, -4557.88, -244.98, 18925.24, 13118.17, 15193.75, 0.00, 0.00, 0.00
56, -3308.84, 27427.56, 11283.07, -1926.81, 21793.15, 12306.33, 19261.32, 379.17, -1355.07, 626.01, 56346.71, -4553.23, -239.79, 18927.41, 13123.76, 15078.78, 0.00, 0.00, 0.00
57, -3313.40, 27445.35, 11297.51, -1931.10, 21796.41, 12295.58, 19309.54, 367.84, -1355.07, 626.01, 56346.71, -4553.23, -239.79, 18927.41, 13123.76, 15078.78, 0.00, 0.00, 0.00
58, -3313.40, 27445.35, 11297.51, -1931.10, 21796.41, 12295.58, 19309.54, 367.84, -1359.19, 629.47, 56443.63, -4553.18, -244.86, 18928.17, 13117.95, 15200.26, 0.00, 0.00, 0.00
59, -3304.59, 27444.72, 11309.27, -1917.09, 21787.61, 12325.11, 19277.66, 400.36, -1359.19, 629.47, 56443.63, -4553.18, -244.86, 18928.17, 13117.95, 15200.26, 0.00, 0.00, 0.00
60, -3304.59, 27444.72, 11309.27, -1917.09, 21787.61, 12325.11, 19277.66, 400.36, -1354.25, 638.01, 56357.13, -4547.57, -243.10, 18941.09, 13123.42, 15097.22, 0.00, 0.00, 0.00
61, -3322.43, 27448.70, 11324.26, -1928.26, 21784.59, 12297.53, 19309.47, 379.38, -1354.25, 638.01, 56357.13, -4547.57, -243.10, 18941.09, 13123.42, 15097.22, 0.00, 0.00, 0.00
62, -3322.43, 27448.70, 11324.26, -1928.26, 21784.59, 12297.53, 19309.47, 379.38, -1363.90, 619.10, 56439.65, -4563.38, -256.06, 18918.27, 13115.38, 15210.81, 0.00, 0.00, 0.00
63, -3319.77, 27436.54, 11320.29, -1928.06, 21774.17, 12299.83, 19271.07, 380.31, -1363.90, 619.10, 56439.65, -4563.38, -256.06, 18918.27, 13115.38, 15210.81, 0.78, 0.53, -0.21
64, -3319.77, 27436.54, 11320.29, -1928.06, 21774.17, 12299.83, 19271.07, 380.31, -1356.84, 620.91, 56342.53, -4556.96, -250.03, 18926.18, 13118.17, 15084.90, 0.00, 0.00, 0.00
65, -3313.60, 27440.68, 11300.39, -1920.77, 21787.41, 12301.75, 19293.04, 375.80, -1356.84, 620.91, 56342.53, -4556.96, -250.03, 18926.18, 13118.17, 15084.90, 0.00, 0.00, 0.00
66, -3313.60, 27440.68, 11300.39, -1920.77, 21787.41, 12301.75, 19293.04, 375.80, -1360.77, 625.33, 56428.86, -4556.05, -249.89, 18921.44, 13119.76, 15200.30, 0.00, 0.00, 0.00
67, -3321.58, 27440.70, 11320.98, -1930.14, 21775.02, 12296.39, 19284.35, 377.83, -1360.77, 625.33, 56428.86, -4556.05, -249.89, 18921.44, 13119.76, 15200.30, 0.00, 0.00, 0.00
68, -3321.58, 27440.70, 11320.98, -1930.14, 21775.02, 12296.39, 19284.35, 377.83, -1364.53, 626.14, 56342.93, -4550.32, -249.76, 18927.17, 13121.32, 15076.72, 0.00, 0.00, 0.00
69, -3320.33, 27438.71, 11288.79, -1930.32, 21785.44, 12277.34, 19291.88, 372.16, -1364.53, 626.14, 56342.93, -4550.32, -249.76, 18927.17, 13121.32, 15076.72, 0.00, 0.00, 0.00
70, -3320.33, 27438.71, 11288.79, -1930.32, 21785.44, 12277.34, 19291.88, 372.16, -1365.00, 629.89, 56435.47, -4552.65, -253.78, 18917.69, 13115.38, 15192.01, 0.00, 0.00, 0.00
71, -3307.19, 27457.60, 11326.34, -1918.67, 21788.90, 12309.71, 19289.85, 388.23, -1365.00, 629.89, 56435.47, -4552.65, -253.78, 18917.69, 13115.38, 15192.01, 0.00, 0.00, 0.00
72, -3307.19, 27457.60, 11326.34, -1918.67, 21788.90, 12309.71, 19289.85, 388.23, -1350.11, 638.75, 56352.61, -4537.72, -234.60, 18940.60, 13134.24, 15078.64, 0.00, 0.00, 0.00
73, -3310.56, 27442.60, 11272.23, -1922.07, 21797.87, 12302.38, 19291.23, 379.98, -1350.11, 638.75, 56352.61, -4537.72, -234.60, 18940.60, 13134.24, 15078.64, 0.79, 0.53, -0.21
74, -3310.56, 27442.60, 11272.23, -1922.07, 21797.87, 12302.38, 19291.23, 379.98, -1364.19, 627.95, 56426.42, -4559.98, -247.21, 18904.84, 13118.10, 15165.97, 0.00, 0.00, 0.00
75, -3329.43, 27452.90, 11328.71, -1942.30, 21780.59, 12285.28, 19297.94, 372.07, -1364.19, 627.95, 56426.42, -4559.98, -247.21, 18904.84, 13118.10, 15165.97, 0.00, 0.00, 0.00
76, -3329.43, 27452.90, 11328.71, -1942.30, 21780.59, 12285.28, 19297.94, 372.07, -1367.19, 619.08, 56369.27, -4557.63, -251.21, 18923.34, 13112.32, 15085.19, 0.00, 0.00, 0.00
77, -3320.89, 27435.56, 11284.48, -1934.74, 21782.65, 12293.53, 19283.45, 376.94, -1367.19, 619.08, 56369.27, -4557.63, -251.21, 18923.34, 13112.32, 15085.19, 0.00, 0.00, 0.00
78, -3320.89, 27435.56, 11284.48, -1934.74, 21782.65, 12293.53, 19283.45, 376.94, -1376.91, 607.88, 56417.41, -4575.25, -261.00, 18900.75, 13100.29, 15144.42, 0.00, 0.00, 0.00
79, -3346.55, 27434.89, 11340.04, -1967.20, 21764.76, 12258.61, 19297.29, 346.79, -1376.91, 607.88, 56417.41, -4575.25, -261.00, 18900.75, 13100.29, 15144.42, 0.00, 0.00, 0.00
80, -3346.55, 27434.89, 11340.04, -1967.20, 21764.76, 12258.61, 19297.29, 346.79, -1377.72, 600.73, 56355.74, -4573.70, -260.35, 18909.78, 13101.25, 15071.94, 0.00, 0.00, 0.00
81, -3320.93, 27415.60, 11274.15, -1932.78, 21784.37, 12301.24, 19270.78, 392.27, -1377.72, 600.73, 56355.74, -4573.70, -260.35, 18909.78, 13101.25, 15071.94, 0.00, 0.00, 0.00
82, -3320.93, 27415.60, 11274.15, -1932.78, 21784.37, 12301.24, 19270.78, 392.27, -1367.23, 618.05, 56388.09, -4563.49, -250.81, 18918.29, 13109.79, 15118.00, 0.00, 0.00, 0.00
83, -3328.71, 27441.95, 11330.70, -1942.95, 21776.54, 12288.16, 19307.82, 381.54, -1367.23, 618.05, 56388.09, -4563.49, -250.81, 18918.29, 13109.79, 15118.00, 0.78, 0.53, -0.21
84, -3328.71, 27441.95, 11330.70, -1942.95, 21776.54, 12288.16, 19307.82, 381.54, -1367.10, 620.69, 56368.19, -4560.85, -250.74, 18931.90, 13106.15, 15097.11, 0.00, 0.00, 0.00
85, -3327.06, 27422.77, 11277.17, -1937.54, 21774.53, 12297.17, 19266.73, 384.72, -1367.10, 620.69, 56368.19, -4560.85, -250.74, 18931.90, 13106.15, 15097.11, 0.00, 0.00, 0.00
86, -3327.06, 27422.77, 11277.17, -1937.54, 21774.53, 12297.17, 19266.73, 384.72, -1370.41, 613.20, 56379.73, -4571.56, -255.93, 18914.76, 13103.89, 15114.41, 0.00, 0.00, 0.00
87, -3328.69, 27450.82, 11330.93, -1941.05, 21777.97, 12285.46, 19315.33, 376.83, -1370.41, 613.20, 56379.73, -4571.56, -255.93, 18914.76, 13103.89, 15114.41, 0.00, 0.00, 0.00
88, -3328.69, 27450.82, 11330.93, -1941.05, 21777.97, 12285.46, 19315.33, 376.83, -1368.04, 614.87, 56392.45, -4565.57, -254.97, 18925.49, 13106.55, 15126.25, 0.00, 0.00, 0.00
89, -3313.15, 27431.67, 11282.09, -1928.26, 21779.45, 12308.19, 19269.66, 396.65, -1368.04, 614.87, 56392.45, -4565.57, -254.97, 18925.49, 13106.55, 15126.25, 0.00, 0.00, 0.00
90, -3313.15, 27431.67, 11282.09, -1928.26, 21779.45, 12308.19, 19269.66, 396.65, -1352.91, 631.62, 56375.43, -4551.73, -238.02, 18930.16, 13122.69, 15103.32, 0.00, 0.00, 0.00
91, -3316.93, 27456.05, 11311.82, -1932.76, 21790.58, 12276.25, 19321.05, 379.60, -1352.91, 631.62, 56375.43, -4551.73, -238.02, 18930.16, 13122.69, 15103.32, 0.00, 0.00, 0.00
92, -3316.93, 27456.05, 11311.82, -1932.76, 21790.58, 12276.25, 19321.05, 379.60, -1367.17, 625.78, 56415.44, -4556.58, -254.56, 18928.08, 13107.29, 15141.14, 0.00, 0.00, 0.00
93, -3317.09, 27432.32, 11279.49, -1932.24, 21782.24, 12311.27, 19264.77, 394.28, -1367.17, 625.78, 56415.44, -4556.58, -254.56, 18928.08, 13107.29, 15141.14, 0.78, 0.53, -0.21
94, -3317.09, 27432.32, 11279.49, -1932.24, 21782.24, 12311.27, 19264.77, 394.28, -1367.39, 626.23, 56373.98, -4557.74, -253.31, 18910.74, 13105.83, 15079.78, 0.00, 0.00, 0.00
95, -3329.58, 27447.45, 11321.09, -1937.40, 21782.06, 12282.31, 19305.69, 366.86, -1367.39, 626.23, 56373.98, -4557.74, -253.31, 18910.74, 13105.83, 15079.78, 0.00, 0.00, 0.00
96, -3329.58, 27447.45, 11321.09, -1937.40, 21782.06, 12282.31, 19305.69, 366.86, -1378.95, 610.76, 56432.63, -4562.24, -261.72, 18920.68, 13093.41, 15147.80, 0.00, 0.00, 0.00
97, -3329.09, 27427.24, 11301.44, -1938.90, 21769.50, 12285.05, 19250.17, 375.20, -1378.95, 610.76, 56432.63, -4562.24, -261.72, 18920.68, 13093.41, 15147.80, 0.00, 0.00, 0.00
98, -3329.09, 27427.24, 11301.44, -1938.90, 21769.50, 12285.05, 19250.17, 375.20, -1378.81, 613.76, 56370.38, -4561.57, -256.80, 18912.03, 13099.46, 15065.72, 0.00, 0.00, 0.00
99, -3332.09, 27439.69, 11318.70, -1940.02, 21784.75, 12277.46, 19301.00, 370.61, -1378.81, 613.76, 56370.38, -4561.57, -256.80, 18912.03, 13099.46, 15065.72, 0.00, 0.00, 0.00
100, -3332.09, 27439.69, 11318.70, -1940.02, 21784.75, 12277.46, 19301.00, 370.61, -1370.56, 616.19, 56431.27, -4564.09, -261.72, 18914.18, 13095.64, 15152.43, 0.00, 0.00, 0.00
101, -3327.77, 27418.71, 11288.97, -1938.88, 21774.73, 12287.11, 19256.72, 380.54, -1370.56, 616.19, 56431.27, -4564.09, -261.72, 18914.18, 13095.64, 15152.43, 0.00, 0.00, 0.00
102, -3327.77, 27418.71, 11288.97, -1938.88, 21774.73, 12287.11, 19256.72, 380.54, -1367.55, 619.03, 56346.46, -4561.14, -258.14, 18919.39, 13098.70, 15049.23, 0.00, 0.00, 0.00
103, -3334.88, 27435.83, 11315.68, -1944.69, 21783.38, 12266.68, 19311.73, 373.94, -1367.55, 619.03, 56346.46, -4561.14, -258.14, 18919.39, 13098.70, 15049.23, 0.78, 0.53, -0.21
104, -3334.88, 27435.83, 11315.68, -1944.69, 21783.38, 12266.68, 19311.73, 373.94, -1367.19, 614.85, 56434.35, -4563.44, -264.42, 18916.66, 13095.84, 15174.40, 0.00, 0.00, 0.00
105, -3321.18, 27421.77, 11301.76, -1940.22, 21777.01, 12304.32, 19275.96, 394.53, -1367.19, 614.85, 56434.35, -4563.44, -264.42, 18916.66, 13095.84, 15174.40, 0.00, 0.00, 0.00
106, -3321.18, 27421.77, 11301.76, -1940.22, 21777.01, 12304.32, 19275.96, 394.53, -1352.53, 621.87, 56335.71, -4552.49, -248.84, 18934.10, 13111.87, 15053.99, 0.00, 0.00, 0.00
107, -3322.70, 27430.71, 11296.46, -1930.34, 21792.08, 12296.90, 19323.71, 387.67, -1352.53, 621.87, 56335.71, -4552.49, -248.84, 18934.10, 13111.87, 15053.99, 0.00, 0.00, 0.00
108, -3322.70, 27430.71, 11296.46, -1930.34, 21792.08, 12296.90, 19323.71, 387.67, -1358.67, 617.78, 56430.48, -4560.23, -254.12, 18925.76, 13110.24, 15185.89, 0.00, 0.00, 0.00
109, -3324.33, 27420.61, 11300.86, -1926.92, 21786.36, 12301.86, 19283.95, 395.67, -1358.67, 617.78, 56430.48, -4560.23, -254.12, 18925.76, 13110.24, 15185.89, 0.00, 0.00, 0.00
110, -3324.33, 27420.61, 11300.86, -1926.92, 21786.36, 12301.86, 19283.95, 395.67, -1355.14, 621.47, 56334.35, -4550.30, -242.65, 18936.53, 13120.21, 15065.23, 0.00, 0.00, 0.00
111, -3323.35, 27419.78, 11299.37, -1924.24, 21793.29, 12290.84, 19317.83, 388.81, -1355.14, 621.47, 56334.35, -4550.30, -242.65, 18936.53, 13120.21, 15065.23, 0.00, 0.00, 0.00
112, -3323.35, 27419.78, 11299.37, -1924.24, 21793.29, 12290.84, 19317.83, 388.81, -1358.07, 623.43, 56435.92, -4553.34, -251.32, 18932.60, 13109.75, 15194.78, 0.00, 0.00, 0.00
113, -3316.19, 27423.98, 11321.49, -1923.28, 21785.46, 12292.68, 19297.06, 385.86, -1358.07, 623.43, 56435.92, -4553.34, -251.32, 18932.60, 13109.75, 15194.78, 0.78, 0.53, -0.21
114, -3316.19, 27423.98, 11321.49, -1923.28, 21785.46, 12292.68, 19297.06, 385.86, -1363.77, 614.14, 56360.93, -4560.96, -250.70, 18927.43, 13104.87, 15088.72, 0.00, 0.00, 0.00
115, -3312.15, 27432.54, 11328.29, -1921.24, 21790.13, 12286.69, 19301.80, 379.71, -1363.77, 614.14, 56360.93, -4560.96, -250.70, 18927.43, 13104.87, 15088.72, 0.00, 0.00, 0.00
116, -3312.15, 27432.54, 11328.29, -1921.24, 21790.13, 12286.69, 19301.80, 379.71, -1356.28, 620.71, 56437.82, -4551.87, -245.49, 18930.94, 13115.15, 15197.89, 0.00, 0.00, 0.00
117, -3316.75, 27439.07, 11347.40, -1927.35, 21783.61, 12285.03, 19299.84, 386.26, -1356.28, 620.71, 56437.82, -4551.87, -245.49, 18930.94, 13115.15, 15197.89, 0.00, 0.00, 0.00
118, -3316.75, 27439.07, 11347.40, -1927.35, 21783.61, 12285.03, 19299.84, 386.26, -1355.63, 616.39, 56340.43, -4549.12, -241.80, 18937.96, 13121.32, 15073.55, 0.00, 0.00, 0.00
119, -3310.02, 27433.08, 11299.19, -1920.46, 21799.86, 12290.75, 19308.78, 390.55, -1355.63, 616.39, 56340.43, -4549.12, -241.80, 18937.96, 13121.32, 15073.55, 0.00, 0.00, 0.00
120, -3310.02, 27433.08, 11299.19, -1920.46, 21799.86, 12290.75, 19308.78, 390.55, -1362.43, 622.56, 56428.07, -4556.05, -251.46, 18922.81, 13109.34, 15182.44, 0.00, 0.00, 0.00
121, -3318.70, 27458.45, 11364.90, -1927.97, 21781.46, 12275.60, 19308.42, 377.05, -1362.43, 622.56, 56428.07, -4556.05, -251.46, 18922.81, 13109.34, 15182.44, 0.00, 0.00, 0.00
122, -3318.70, 27458.45, 11364.90, -1927.97, 21781.46, 12275.60, 19308.42, 377.05, -1363.03, 629.02, 56369.45, -4544.56, -253.78, 18941.22, 13107.04, 15101.89, 0.00, 0.00, 0.00
123, -3310.94, 27447.74, 11327.44, -1919.28, 21788.12, 12296.77, 19296.48, 390.42, -1363.03, 629.02, 56369.45, -4544.56, -253.78, 18941.22, 13107.04, 15101.89, 0.78, 0.53, -0.22
124, -3310.94, 27447.74, 11327.44, -1919.28, 21788.12, 12296.77, 19296.48, 390.42, -1361.91, 632.80, 56416.45, -4545.27, -251.59, 18929.83, 13108.69, 15179.45, 0.00, 0.00, 0.00
125, -3310.85, 27470.23, 11369.75, -1920.62, 21787.12, 12296.43, 19316.56, 386.42, -1361.91, 632.80, 56416.45, -4545.27, -251.59, 18929.83, 13108.69, 15179.45, 0.00, 0.00, 0.00
126, -3310.85, 27470.23, 11369.75, -1920.62, 21787.12, 12296.43, 19316.56, 386.42, -1356.24, 636.11, 56375.64, -4534.27, -246.52, 18950.19, 13112.18, 15122.50, 0.00, 0.00, 0.00
127, -3295.76, 27463.70, 11316.93, -1911.12, 21800.42, 12308.84, 19292.97, 401.75, -1356.24, 636.11, 56375.64, -4534.27, -246.52, 18950.19, 13112.18, 15122.50, 0.00, 0.00, 0.00
128, -3295.76, 27463.70, 11316.93, -1911.12, 21800.42, 12308.84, 19292.97, 401.75, -1351.83, 644.00, 56417.28, -4533.78, -240.48, 18939.24, 13115.56, 15184.68, 0.00, 0.00, 0.00
129, -3303.74, 27486.43, 11370.40, -1914.92, 21795.90, 12308.12, 19318.84, 405.55, -1351.83, 644.00, 56417.28, -4533.78, -240.48, 18939.24, 13115.56, 15184.68, 0.00, 0.00, 0.00
130, -3303.74, 27486.43, 11370.40, -1914.92, 21795.90, 12308.12, 19318.84, 405.55, -1346.13, 645.76, 56388.91, -4525.87, -238.31, 18964.16, 13117.19, 15153.10, 0.00, 0.00, 0.00
131, -3298.69, 27458.85, 11312.26, -1915.14, 21794.02, 12311.85, 19283.01, 411.81, -1346.13, 645.76, 56388.91, -4525.87, -238.31, 18964.16, 13117.19, 15153.10, 0.00, 0.00, 0.00
132, -3298.69, 27458.85, 11312.26, -1915.14, 21794.02, 12311.85, 19283.01, 411.81, -1360.64, 629.45, 56406.01, -4553.92, -253.98, 18924.75, 13098.64, 15178.33, 0.00, 0.00, 0.00
133, -3324.08, 27474.14, 11374.22, -1944.51, 21784.88, 12280.96, 19308.51, 381.68, -1360.64, 629.45, 56406.01, -4553.92, -253.98, 18924.75, 13098.64, 15178.33, 0.78, 0.54, -0.22
134, -3324.08, 27474.14, 11374.22, -1944.51, 21784.88, 12280.96, 19308.51, 381.68, -1365.96, 621.22, 56400.87, -4558.33, -259.66, 18936.15, 13093.09, 15159.29, 0.00, 0.00, 0.00
135, -3313.67, 27454.98, 11326.19, -1934.92, 21785.08, 12292.48, 19265.53, 392.41, -1365.96, 621.22, 56400.87, -4558.33, -259.66, 18936.15, 13093.09, 15159.29, 0.00, 0.00, 0.00
136, -3313.67, 27454.98, 11326.19, -1934.92, 21785.08, 12292.48, 19265.53, 392.41, -1365.45, 629.05, 56402.03, -4556.81, -259.59, 18923.63, 13094.50, 15147.80, 0.00, 0.00, 0.00
137, -3327.50, 27486.45, 11398.85, -1942.66, 21775.34, 12269.70, 19317.29, 372.22, -1365.45, 629.05, 56402.03, -4556.81, -259.59, 18923.63, 13094.50, 15147.80, 0.00, 0.00, 0.00
138, -3327.50, 27486.45, 11398.85, -1942.66, 21775.34, 12269.70, 19317.29, 372.22, -1377.29, 612.30, 56439.05, -4569.03, -273.54, 18917.67, 13080.08, 15172.92, 0.00, 0.00, 0.00
139, -3313.06, 27452.66, 11361.84, -1941.45, 21780.23, 12269.03, 19254.66, 384.90, -1377.29, 612.30, 56439.05, -4569.03, -273.54, 18917.67, 13080.08, 15172.92, 0.00, 0.00, 0.00
140, -3313.06, 27452.66, 11361.84, -1941.45, 21780.23, 12269.03, 19254.66, 384.90, -1359.72, 623.64, 56386.07, -4556.47, -253.63, 18919.34, 13099.42, 15106.76, 0.00, 0.00, 0.00
141, -3325.49, 27469.35, 11396.15, -1943.26, 21787.12, 12275.17, 19306.77, 374.32, -1359.72, 623.64, 56386.07, -4556.47, -253.63, 18919.34, 13099.42, 15106.76, 0.00, 0.00, 0.00
142, -3325.49, 27469.35, 11396.15, -1943.26, 21787.12, 12275.17, 19306.77, 374.32, -1375.93, 604.37, 56428.47, -4570.37, -265.49, 18916.41, 13087.59, 15153.77, 0.00, 0.00, 0.00
143, -3323.66, 27435.78, 11350.17, -1941.49, 21778.71, 12279.76, 19246.73, 382.42, -1375.93, 604.37, 56428.47, -4570.37, -265.49, 18916.41, 13087.59, 15153.77, 0.78, 0.53, -0.22
144, -3323.66, 27435.78, 11350.17, -1941.49, 21778.71, 12279.76, 19246.73, 382.42, -1379.73, 609.96, 56375.70, -4564.74, -259.84, 18915.52, 13094.99, 15089.84, 0.00, 0.00, 0.00
145, -3328.00, 27456.50, 11379.05, -1939.48, 21794.22, 12274.59, 19312.76, 383.29, -1379.73, 609.96, 56375.70, -4564.74, -259.84, 18915.52, 13094.99, 15089.84, 0.00, 0.00, 0.00
146, -3328.00, 27456.50, 11379.05, -1939.48, 21794.22, 12274.59, 19312.76, 383.29, -1379.53, 606.89, 56419.55, -4558.24, -251.50, 18925.76, 13108.00, 15165.68, 0.00, 0.00, 0.00
147, -3320.20, 27434.02, 11323.71, -1934.68, 21791.77, 12284.65, 19274.85, 393.64, -1379.53, 606.89, 56419.55, -4558.24, -251.50, 18925.76, 13108.00, 15165.68, 0.00, 0.00, 0.00
148, -3320.20, 27434.02, 11323.71, -1934.68, 21791.77, 12284.65, 19274.85, 393.64, -1383.64, 602.76, 56346.93, -4562.42, -252.11, 18914.69, 13107.29, 15082.24, 0.00, 0.00, 0.00
149, -3331.26, 27457.84, 11343.78, -1944.67, 21793.87, 12272.45, 19320.60, 387.71, -1383.64, 602.76, 56346.93, -4562.42, -252.11, 18914.69, 13107.29, 15082.24, 0.00, 0.00, 0.00
150, -3331.26, 27457.84, 11343.78, -1944.67, 21793.87, 12272.45, 19320.60, 387.71, -1385.27, 601.26, 56426.53, -4557.07, -258.41, 18931.75, 13103.75, 15187.92, 0.00, 0.00, 0.00
151, -3316.53, 27452.46, 11318.81, -1933.60, 21791.14, 12297.33, 19269.37, 403.07, -1385.27, 601.26, 56426.53, -4557.07, -258.41, 18931.75, 13103.75, 15187.92, 0.00, 0.00, 0.00
152, -3316.53, 27452.46, 11318.81, -1933.60, 21791.14, 12297.33, 19269.37, 403.07, -1379.53, 611.74, 56345.15, -4550.84, -251.88, 18937.98, 13110.82, 15085.93, 0.00, 0.00, 0.00
153, -3318.63, 27470.70, 11339.26, -1938.03, 21796.17, 12282.75, 19308.98, 390.15, -1379.53, 611.74, 56345.15, -4550.84, -251.88, 18937.98, 13110.82, 15085.93, 0.78, 0.53, -0.22
154, -3318.63, 27470.70, 11339.26, -1938.03, 21796.17, 12282.75, 19308.98, 390.15, -1375.01, 613.44, 56439.43, -4552.89, -260.08, 18934.47, 13104.04, 15206.96, 0.00, 0.00, 0.00
155, -3308.59, 27465.62, 11334.05, -1932.80, 21787.07, 12294.87, 19272.86, 400.23, -1375.01, 613.44, 56439.43, -4552.89, -260.08, 18934.47, 13104.04, 15206.96, 0.00, 0.00, 0.00
156, -3308.59, 27465.62, 11334.05, -1932.80, 21787.07, 12294.87, 19272.86, 400.23, -1360.08, 627.55, 56346.87, -4535.77, -244.66, 18951.24, 13118.46, 15085.06, 0.00, 0.00, 0.00
157, -3306.23, 27476.84, 11338.57, -1918.45, 21794.16, 12316.37, 19316.53, 405.13, -1360.08, 627.55, 56346.87, -4535.77, -244.66, 18951.24, 13118.46, 15085.06, 0.00, 0.00, 0.00
158, -3306.23, 27476.84, 11338.57, -1918.45, 21794.16, 12316.37, 19316.53, 405.13, -1358.78, 628.51, 56439.70, -4535.48, -248.64, 18953.34, 13113.43, 15212.64, 0.00, 0.00, 0.00
159, -3305.96, 27474.99, 11347.13, -1924.28, 21782.56, 12301.30, 19282.20, 398.69, -1358.78, 628.51, 56439.70, -4535.48, -248.64, 18953.34, 13113.43, 15212.64, 0.00, 0.00, 0.00
160, -3305.96, 27474.99, 11347.13, -1924.28, 21782.56, 12301.30, 19282.20, 398.69, -1377.96, 613.42, 56350.29, -4554.28, -261.00, 18930.94, 13093.92, 15088.41, 0.00, 0.00, 0.00
161, -3317.76, 27471.48, 11345.66, -1938.01, 21783.38, 12285.01, 19299.70, 388.43, -1377.96, 613.42, 56350.29, -4554.28, -261.00, 18930.94, 13093.92, 15088.41, 0.00, 0.00, 0.00
