%OpenBCI Raw EEG Data
%
%Sample Rate = 250.0 Hz
%First Column = SampleIndex
%Other Columns = EEG data in microvolts followed by Accel Data (in G) interleaved with Aux Data
0, 0.00, 0.00, 0.00, 0.00, 0.00, 0.00, 0.00, 0.00, 34348.53, -21253.42, 22551.88, 93749.98, 93749.98, 93749.98, 12724.87, 11187.00, 0.81, -0.55, -0.08
1, 7715.91, 6979.69, -13928.78, -93750.01, -93750.01, -34565.86, -18526.91, 36996.70, 34348.53, -21253.42, 22551.88, 93749.98, 93749.98, 93749.98, 12724.87, 11187.00, 0.00, 0.00, 0.00
2, 7715.91, 6979.69, -13928.78, -93750.01, -93750.01, -34565.86, -18526.91, 36996.70, 76742.30, 187500.00, 134873.02, 187500.00, 187500.00, 187500.00, 65460.23, 43544.59, 0.00, 0.00, 0.00
3, 15201.62, 13743.68, -28103.96, -187500.02, -187500.02, -69040.80, -36893.59, 74121.34, 76742.30, 187500.00, 134873.02, 187500.00, 187500.00, 187500.00, 65460.23, 43544.59, 0.00, 0.00, 0.00
4, 15201.62, 13743.68, -28103.96, -187500.02, -187500.02, -69040.80, -36893.59, 74121.34, 76975.98, 187500.00, 134721.27, 187500.00, 187500.00, 187500.00, 65230.57, 43479.62, 0.00, 0.00, 0.00
5, 14947.35, 13585.61, -28491.21, -187500.02, -187500.02, -68959.55, -36728.88, 74272.95, 76975.98, 187500.00, 134721.27, 187500.00, 187500.00, 187500.00, 65230.57, 43479.62, 0.00, 0.00, 0.00
6, 14947.35, 13585.61, -28491.21, -187500.02, -187500.02, -68959.55, -36728.88, 74272.95, 77244.30, 187500.00, 134614.89, 187500.00, 187500.00, 187500.00, 65078.20, 43461.31, 0.00, 0.00, 0.00
7, 14771.42, 13404.77, -28816.74, -187500.02, -187500.02, -68841.00, -36516.27, 74461.44, 77244.30, 187500.00, 134614.89, 187500.00, 187500.00, 187500.00, 65078.20, 43461.31, 0.00, 0.00, 0.00
8, 14771.42, 13404.77, -28816.74, -187500.02, -187500.02, -68841.00, -36516.27, 74461.44, 77495.95, 187500.00, 134494.38, 187500.00, 187500.00, 187500.00, 64912.50, 43350.00, 0.79, -0.59, -0.10
9, 14626.47, 13313.93, -29235.59, -187500.02, -187500.02, -68803.25, -36392.62, 74586.05, 77495.95, 187500.00, 134494.38, 187500.00, 187500.00, 187500.00, 64912.50, 43350.00, 0.00, 0.00, 0.00
10, 14626.47, 13313.93, -29235.59, -187500.02, -187500.02, -68803.25, -36392.62, 74586.05, 77768.45, 187500.00, 134376.14, 187500.00, 187500.00, 187500.00, 64719.14, 43248.12, 0.00, 0.00, 0.00
11, 14488.33, 13110.39, -29571.45, -187500.02, -187500.02, -68724.91, -36232.78, 74717.30, 77768.45, 187500.00, 134376.14, 187500.00, 187500.00, 187500.00, 64719.14, 43248.12, 0.00, 0.00, 0.00
12, 14488.33, 13110.39, -29571.45, -187500.02, -187500.02, -68724.91, -36232.78, 74717.30, 77995.11, 187500.00, 134333.20, 187500.00, 187500.00, 187500.00, 64438.73, 43054.18, 0.00, 0.00, 0.00
13, 14411.93, 13068.08, -30018.03, -187500.02, -187500.02, -68742.19, -36184.34, 74780.24, 77995.11, 187500.00, 134333.20, 187500.00, 187500.00, 187500.00, 64438.73, 43054.18, 0.00, 0.00, 0.00
14, 14411.93, 13068.08, -30018.03, -187500.02, -187500.02, -68742.19, -36184.34, 74780.24, 78244.54, 187500.00, 134300.05, 187500.00, 187500.00, 187500.00, 64211.98, 42810.72, 0.00, 0.00, 0.00
15, 14308.36, 12884.93, -30337.46, -187500.02, -187500.02, -68679.98, -36066.73, 74857.27, 78244.54, 187500.00, 134300.05, 187500.00, 187500.00, 187500.00, 64211.98, 42810.72, 0.00, 0.00, 0.00
16, 14308.36, 12884.93, -30337.46, -187500.02, -187500.02, -68679.98, -36066.73, 74857.27, 78444.74, 187500.00, 134314.36, 187500.00, 187500.00, 187500.00, 64001.96, 42563.53, 0.00, 0.00, 0.00
17, 14200.33, 12741.21, -30718.76, -187500.02, -187500.02, -68678.51, -36033.56, 74866.72, 78444.74, 187500.00, 134314.36, 187500.00, 187500.00, 187500.00, 64001.96, 42563.53, 0.00, 0.00, 0.00
18, 14200.33, 12741.21, -30718.76, -187500.02, -187500.02, -68678.51, -36033.56, 74866.72, 78597.05, 187500.00, 134454.55, 187500.00, 187500.00, 187500.00, 63709.93, 42336.86, 0.80, -0.58, -0.07
19, 14155.49, 12634.90, -31032.91, -187500.02, -187500.02, -68656.13, -35975.38, 74886.97, 78597.05, 187500.00, 134454.55, 187500.00, 187500.00, 187500.00, 63709.93, 42336.86, 0.00, 0.00, 0.00
20, 14155.49, 12634.90, -31032.91, -187500.02, -187500.02, -68656.13, -35975.38, 74886.97, 78694.95, 187500.00, 134607.98, 187500.00, 187500.00, 187500.00, 63361.36, 41976.35, 0.00, 0.00, 0.00
21, 14186.90, 12749.52, -31475.44, -187500.02, -187500.02, -68764.05, -36057.63, 74827.36, 78694.95, 187500.00, 134607.98, 187500.00, 187500.00, 187500.00, 63361.36, 41976.35, 0.00, 0.00, 0.00
22, 14186.90, 12749.52, -31475.44, -187500.02, -187500.02, -68764.05, -36057.63, 74827.36, 78757.30, 187500.00, 134663.06, 187500.00, 187500.00, 187500.00, 63061.36, 41527.55, 0.00, 0.00, 0.00
23, 14109.40, 12564.85, -31799.63, -187500.02, -187500.02, -68744.42, -36002.91, 74871.44, 78757.30, 187500.00, 134663.06, 187500.00, 187500.00, 187500.00, 63061.36, 41527.55, 0.00, 0.00, 0.00
24, 14109.40, 12564.85, -31799.63, -187500.02, -187500.02, -68744.42, -36002.91, 74871.44, 78741.39, 187500.00, 134727.86, 187500.00, 187500.00, 187500.00, 62652.32, 41061.90, 0.00, 0.00, 0.00
25, 14164.61, 12833.01, -32247.69, -187500.02, -187500.02, -68833.16, -36078.64, 74860.35, 78741.39, 187500.00, 134727.86, 187500.00, 187500.00, 187500.00, 62652.32, 41061.90, 0.00, 0.00, 0.00
26, 14164.61, 12833.01, -32247.69, -187500.02, -187500.02, -68833.16, -36078.64, 74860.35, 78655.30, 187500.00, 134677.92, 187500.00, 187500.00, 187500.00, 62293.75, 40629.26, 0.00, 0.00, 0.00
27, 14232.07, 12905.25, -32657.13, -187500.02, -187500.02, -68893.69, -36124.11, 74844.01, 78655.30, 187500.00, 134677.92, 187500.00, 187500.00, 187500.00, 62293.75, 40629.26, 0.00, 0.00, 0.00
28, 14232.07, 12905.25, -32657.13, -187500.02, -187500.02, -68893.69, -36124.11, 74844.01, 78561.69, 187500.00, 134614.22, 187500.00, 187500.00, 187500.00, 62034.65, 40339.27, 0.79, -0.58, -0.06
29, 14342.29, 13157.24, -33155.39, -187500.02, -187500.02, -69023.33, -36227.55, 74815.98, 78561.69, 187500.00, 134614.22, 187500.00, 187500.00, 187500.00, 62034.65, 40339.27, 0.00, 0.00, 0.00
30, 14342.29, 13157.24, -33155.39, -187500.02, -187500.02, -69023.33, -36227.55, 74815.98, 78355.49, 187500.00, 134349.30, 187500.00, 187500.00, 187500.00, 61543.38, 39941.18, 0.00, 0.00, 0.00
31, 14426.73, 13289.14, -33648.63, -187500.02, -187500.02, -69147.47, -36297.93, 74811.09, 78355.49, 187500.00, 134349.30, 187500.00, 187500.00, 187500.00, 61543.38, 39941.18, 0.00, 0.00, 0.00
32, 14426.73, 13289.14, -33648.63, -187500.02, -187500.02, -69147.47, -36297.93, 74811.09, 78140.18, 187500.00, 134105.61, 187500.00, 187500.00, 187500.00, 61178.02, 39631.47, 0.00, 0.00, 0.00
33, 14615.89, 13584.72, -34220.34, -187500.02, -187500.02, -69344.92, -36433.43, 74786.59, 78140.18, 187500.00, 134105.61, 187500.00, 187500.00, 187500.00, 61178.02, 39631.47, 0.00, 0.00, 0.00
34, 14615.89, 13584.72, -34220.34, -187500.02, -187500.02, -69344.92, -36433.43, 74786.59, 77816.16, 187500.00, 133696.33, 187500.00, 187500.00, 187500.00, 60727.12, 39232.85, 0.00, 0.00, 0.00
35, 14749.33, 13706.11, -34766.93, -187500.02, -187500.02, -69521.92, -36536.45, 74775.08, 77816.16, 187500.00, 133696.33, 187500.00, 187500.00, 187500.00, 60727.12, 39232.85, 0.00, 0.00, 0.00
36, 14749.33, 13706.11, -34766.93, -187500.02, -187500.02, -69521.92, -36536.45, 74775.08, 77501.77, 187500.00, 133364.86, 187500.00, 187500.00, 187500.00, 60431.40, 38855.82, 0.00, 0.00, 0.00
37, 14718.53, 13749.45, -35396.94, -187500.02, -187500.02, -69768.29, -36729.26, 74645.23, 77501.77, 187500.00, 133364.86, 187500.00, 187500.00, 187500.00, 60431.40, 38855.82, 0.76, -0.56, -0.08
38, 14718.53, 13749.45, -35396.94, -187500.02, -187500.02, -69768.29, -36729.26, 74645.23, 77069.48, 187500.00, 132873.58, 187500.00, 187500.00, 187500.00, 59947.67, 38297.34, 0.00, 0.00, 0.00
39, 14577.41, 13527.66, -36028.80, -187500.02, -187500.02, -70024.57, -36955.05, 74457.26, 77069.48, 187500.00, 132873.58, 187500.00, 187500.00, 187500.00, 59947.67, 38297.34, 0.00, 0.00, 0.00
40, 14577.41, 13527.66, -36028.80, -187500.02, -187500.02, -70024.57, -36955.05, 74457.26, 76725.84, 187500.00, 132440.05, 187500.00, 187500.00, 187500.00, 59629.98, 37905.90, 0.00, 0.00, 0.00
41, 14516.07, 13454.05, -36627.27, -187500.02, -187500.02, -70277.77, -37180.00, 74275.65, 76725.84, 187500.00, 132440.05, 187500.00, 187500.00, 187500.00, 59629.98, 37905.90, 0.00, 0.00, 0.00
42, 14516.07, 13454.05, -36627.27, -187500.02, -187500.02, -70277.77, -37180.00, 74275.65, 76399.55, 187500.00, 131888.30, 187500.00, 187500.00, 187500.00, 59165.69, 37425.69, 0.00, 0.00, 0.00
43, 14605.66, 13582.69, -37219.36, -187500.02, -187500.02, -70542.55, -37421.22, 74101.84, 76399.55, 187500.00, 131888.30, 187500.00, 187500.00, 187500.00, 59165.69, 37425.69, 0.00, 0.00, 0.00
44, 14605.66, 13582.69, -37219.36, -187500.02, -187500.02, -70542.55, -37421.22, 74101.84, 76151.74, 187500.00, 131408.53, 187500.00, 187500.00, 187500.00, 58883.23, 37064.24, 0.00, 0.00, 0.00
45, 14663.44, 13688.01, -37752.61, -187500.02, -187500.02, -70699.34, -37555.87, 74032.93, 76151.74, 187500.00, 131408.53, 187500.00, 187500.00, 187500.00, 58883.23, 37064.24, 0.00, 0.00, 0.00
46, 14663.44, 13688.01, -37752.61, -187500.02, -187500.02, -70699.34, -37555.87, 74032.93, 75907.59, 187500.00, 130872.86, 187500.00, 187500.00, 187500.00, 58422.27, 36674.34, 0.00, 0.00, 0.00
47, 14654.72, 13748.24, -38373.07, -187500.02, -187500.02, -70926.80, -37758.67, 73920.62, 75907.59, 187500.00, 130872.86, 187500.00, 187500.00, 187500.00, 58422.27, 36674.34, 0.76, -0.56, -0.09
48, 14654.72, 13748.24, -38373.07, -187500.02, -187500.02, -70926.80, -37758.67, 73920.62, 75742.84, 187500.00, 130441.31, 187500.00, 187500.00, 187500.00, 58033.82, 36355.38, 0.00, 0.00, 0.00
49, 14787.42, 13907.37, -38994.16, -187500.02, -187500.02, -71189.81, -37983.10, 73804.67, 75742.84, 187500.00, 130441.31, 187500.00, 187500.00, 187500.00, 58033.82, 36355.38, 0.00, 0.00, 0.00
50, 14787.42, 13907.37, -38994.16, -187500.02, -187500.02, -71189.81, -37983.10, 73804.67, 75542.39, 187500.00, 129956.28, 187500.00, 187500.00, 187500.00, 57650.04, 35941.96, 0.00, 0.00, 0.00
51, 14830.05, 14094.85, -39700.77, -187500.02, -187500.02, -71523.28, -38262.90, 73669.05, 75542.39, 187500.00, 129956.28, 187500.00, 187500.00, 187500.00, 57650.04, 35941.96, 0.00, 0.00, 0.00
52, 14830.05, 14094.85, -39700.77, -187500.02, -187500.02, -71523.28, -38262.90, 73669.05, 75394.09, 187500.00, 129524.94, 187500.00, 187500.00, 187500.00, 57357.64, 35674.57, 0.00, 0.00, 0.00
53, 14850.32, 14128.56, -40328.36, -187500.02, -187500.02, -71817.63, -38514.51, 73512.76, 75394.09, 187500.00, 129524.94, 187500.00, 187500.00, 187500.00, 57357.64, 35674.57, 0.00, 0.00, 0.00
54, 14850.32, 14128.56, -40328.36, -187500.02, -187500.02, -71817.63, -38514.51, 73512.76, 75250.74, 187500.00, 128974.10, 187500.00, 187500.00, 187500.00, 56978.80, 35387.19, 0.00, 0.00, 0.00
55, 14841.40, 14168.39, -41004.25, -187500.02, -187500.02, -72158.49, -38822.68, 73319.11, 75250.74, 187500.00, 128974.10, 187500.00, 187500.00, 187500.00, 56978.80, 35387.19, 0.00, 0.00, 0.00
56, 14841.40, 14168.39, -41004.25, -187500.02, -187500.02, -72158.49, -38822.68, 73319.11, 75161.72, 187500.00, 128440.80, 187500.00, 187500.00, 187500.00, 56647.50, 35189.00, 0.00, 0.00, 0.00
57, 14882.95, 14177.35, -41608.11, -187500.02, -187500.02, -72412.88, -39033.83, 73217.07, 75161.72, 187500.00, 128440.80, 187500.00, 187500.00, 187500.00, 56647.50, 35189.00, 0.75, -0.56, -0.10
58, 14882.95, 14177.35, -41608.11, -187500.02, -187500.02, -72412.88, -39033.83, 73217.07, 75062.45, 187500.00, 127924.53, 187500.00, 187500.00, 187500.00, 56234.89, 34968.21, 0.00, 0.00, 0.00
59, 14958.08, 14352.50, -42298.44, -187500.02, -187500.02, -72710.13, -39316.02, 73087.01, 75062.45, 187500.00, 127924.53, 187500.00, 187500.00, 187500.00, 56234.89, 34968.21, 0.00, 0.00, 0.00
60, 14958.08, 14352.50, -42298.44, -187500.02, -187500.02, -72710.13, -39316.02, 73087.01, 74931.38, 187500.00, 127416.31, 187500.00, 187500.00, 187500.00, 55855.80, 34791.52, 0.00, 0.00, 0.00
61, 15064.85, 14494.17, -42952.79, -187500.02, -187500.02, -72996.84, -39564.84, 73005.00, 74931.38, 187500.00, 127416.31, 187500.00, 187500.00, 187500.00, 55855.80, 34791.52, 0.00, 0.00, 0.00
62, 15064.85, 14494.17, -42952.79, -187500.02, -187500.02, -72996.84, -39564.84, 73005.00, 74781.23, 187500.00, 126945.70, 187500.00, 187500.00, 187500.00, 55489.72, 34531.34, 0.00, 0.00, 0.00
63, 15164.43, 14669.07, -43689.21, -187500.02, -187500.02, -73323.53, -39860.54, 72878.64, 74781.23, 187500.00, 126945.70, 187500.00, 187500.00, 187500.00, 55489.72, 34531.34, 0.00, 0.00, 0.00
64, 15164.43, 14669.07, -43689.21, -187500.02, -187500.02, -73323.53, -39860.54, 72878.64, 74622.15, 187500.00, 126465.52, 187500.00, 187500.00, 187500.00, 55242.16, 34279.86, 0.00, 0.00, 0.00
65, 15216.91, 14684.69, -44353.01, -187500.02, -187500.02, -73565.76, -40060.79, 72830.01, 74622.15, 187500.00, 126465.52, 187500.00, 187500.00, 187500.00, 55242.16, 34279.86, 0.00, 0.00, 0.00
66, 15216.91, 14684.69, -44353.01, -187500.02, -187500.02, -73565.76, -40060.79, 72830.01, 74398.31, 187500.00, 125921.61, 187500.00, 187500.00, 187500.00, 55015.89, 34028.63, 0.00, 0.00, 0.00
67, 15312.20, 14932.93, -45100.34, -187500.02, -187500.02, -73872.42, -40328.80, 72742.32, 74398.31, 187500.00, 125921.61, 187500.00, 187500.00, 187500.00, 55015.89, 34028.63, 0.76, -0.56, -0.10
68, 15312.20, 14932.93, -45100.34, -187500.02, -187500.02, -73872.42, -40328.80, 72742.32, 74196.48, 187500.00, 125346.16, 187500.00, 187500.00, 187500.00, 54730.93, 33657.99, 0.00, 0.00, 0.00
69, 15464.63, 15148.80, -45778.00, -187500.02, -187500.02, -74102.58, -40503.28, 72744.91, 74196.48, 187500.00, 125346.16, 187500.00, 187500.00, 187500.00, 54730.93, 33657.99, 0.00, 0.00, 0.00
70, 15464.63, 15148.80, -45778.00, -187500.02, -187500.02, -74102.58, -40503.28, 72744.91, 74029.58, 187500.00, 124841.77, 187500.00, 187500.00, 187500.00, 54414.11, 33328.42, 0.00, 0.00, 0.00
71, 15606.41, 15327.37, -46536.80, -187500.02, -187500.02, -74399.84, -40717.34, 72738.43, 74029.58, 187500.00, 124841.77, 187500.00, 187500.00, 187500.00, 54414.11, 33328.42, 0.00, 0.00, 0.00
72, 15606.41, 15327.37, -46536.80, -187500.02, -187500.02, -74399.84, -40717.34, 72738.43, 73844.87, 187500.00, 124361.95, 187500.00, 187500.00, 187500.00, 54000.18, 32912.14, 0.00, 0.00, 0.00
73, 15775.95, 15492.82, -47230.02, -187500.02, -187500.02, -74645.46, -40850.94, 72808.68, 73844.87, 187500.00, 124361.95, 187500.00, 187500.00, 187500.00, 54000.18, 32912.14, 0.00, 0.00, 0.00
74, 15775.95, 15492.82, -47230.02, -187500.02, -187500.02, -74645.46, -40850.94, 72808.68, 73719.63, 187500.00, 123959.04, 187500.00, 187500.00, 187500.00, 53661.08, 32538.75, 0.00, 0.00, 0.00
75, 15847.14, 15561.31, -47986.91, -187500.02, -187500.02, -74924.48, -41042.00, 72771.65, 73719.63, 187500.00, 123959.04, 187500.00, 187500.00, 187500.00, 53661.08, 32538.75, 0.00, 0.00, 0.00
76, 15847.14, 15561.31, -47986.91, -187500.02, -187500.02, -74924.48, -41042.00, 72771.65, 73677.85, 187500.00, 123580.73, 187500.00, 187500.00, 187500.00, 53232.11, 32213.06, 0.00, 0.00, 0.00
77, 15901.59, 15534.91, -48752.75, -187500.02, -187500.02, -75302.47, -41302.74, 72668.23, 73677.85, 187500.00, 123580.73, 187500.00, 187500.00, 187500.00, 53232.11, 32213.06, 0.78, -0.58, -0.08
78, 15901.59, 15534.91, -48752.75, -187500.02, -187500.02, -75302.47, -41302.74, 72668.23, 73719.78, 187500.00, 123319.51, 187500.00, 187500.00, 187500.00, 52776.98, 31995.09, 0.00, 0.00, 0.00
79, 15981.92, 15587.95, -49586.65, -187500.02, -187500.02, -75750.66, -41597.40, 72554.12, 73719.78, 187500.00, 123319.51, 187500.00, 187500.00, 187500.00, 52776.98, 31995.09, 0.00, 0.00, 0.00
80, 15981.92, 15587.95, -49586.65, -187500.02, -187500.02, -75750.66, -41597.40, 72554.12, 73724.45, 187500.00, 122897.15, 187500.00, 187500.00, 187500.00, 52098.11, 31693.90, 0.00, 0.00, 0.00
81, 16132.19, 15697.54, -50452.64, -187500.02, -187500.02, -76181.45, -41858.51, 72491.20, 73724.45, 187500.00, 122897.15, 187500.00, 187500.00, 187500.00, 52098.11, 31693.90, 0.00, 0.00, 0.00
82, 16132.19, 15697.54, -50452.64, -187500.02, -187500.02, -76181.45, -41858.51, 72491.20, 73795.76, 187500.00, 122578.10, 187500.00, 187500.00, 187500.00, 51498.15, 31661.87, 0.00, 0.00, 0.00
83, 16254.50, 15841.89, -51328.52, -187500.02, -187500.02, -76700.41, -42190.39, 72348.28, 73795.76, 187500.00, 122578.10, 187500.00, 187500.00, 187500.00, 51498.15, 31661.87, 0.00, 0.00, 0.00
84, 16254.50, 15841.89, -51328.52, -187500.02, -187500.02, -76700.41, -42190.39, 72348.28, 73825.71, 187500.00, 122157.46, 187500.00, 187500.00, 187500.00, 50778.49, 31461.13, 0.00, 0.00, 0.00
85, 16502.09, 16106.98, -52169.86, -187500.02, -187500.02, -77162.04, -42486.66, 72275.16, 73825.71, 187500.00, 122157.46, 187500.00, 187500.00, 187500.00, 50778.49, 31461.13, 0.00, 0.00, 0.00
86, 16502.09, 16106.98, -52169.86, -187500.02, -187500.02, -77162.04, -42486.66, 72275.16, 73892.65, 187500.00, 121791.25, 187500.00, 187500.00, 187500.00, 50061.78, 31493.70, 0.00, 0.00, 0.00
87, 16665.48, 16224.84, -52983.18, -187500.02, -187500.02, -77630.16, -42765.52, 72209.14, 73892.65, 187500.00, 121791.25, 187500.00, 187500.00, 187500.00, 50061.78, 31493.70, 0.80, -0.60, -0.08
88, 16665.48, 16224.84, -52983.18, -187500.02, -187500.02, -77630.16, -42765.52, 72209.14, 73855.15, 187500.00, 121430.77, 187500.00, 187500.00, 187500.00, 49002.46, 31630.36, 0.00, 0.00, 0.00
89, 16938.64, 16518.81, -53744.61, -187500.02, -187500.02, -78049.30, -43021.52, 72188.84, 73855.15, 187500.00, 121430.77, 187500.00, 187500.00, 187500.00, 49002.46, 31630.36, 0.00, 0.00, 0.00
90, 16938.64, 16518.81, -53744.61, -187500.02, -187500.02, -78049.30, -43021.52, 72188.84, 73848.02, 187500.00, 121091.82, 187500.00, 187500.00, 187500.00, 47995.54, 31737.06, 0.00, 0.00, 0.00
91, 17158.43, 16662.55, -54326.70, -187500.02, -187500.02, -78321.07, -43191.13, 72204.76, 73848.02, 187500.00, 121091.82, 187500.00, 187500.00, 187500.00, 47995.54, 31737.06, 0.00, 0.00, 0.00
92, 17158.43, 16662.55, -54326.70, -187500.02, -187500.02, -78321.07, -43191.13, 72204.76, 73864.47, 187500.00, 120604.02, 187500.00, 187500.00, 187500.00, 47081.60, 31837.09, 0.00, 0.00, 0.00
93, 17455.53, 16927.40, -54850.11, -187500.02, -187500.02, -78564.28, -43334.36, 72268.89, 73864.47, 187500.00, 120604.02, 187500.00, 187500.00, 187500.00, 47081.60, 31837.09, 0.00, 0.00, 0.00
94, 17455.53, 16927.40, -54850.11, -187500.02, -187500.02, -78564.28, -43334.36, 72268.89, 74023.21, 187500.00, 120272.14, 187500.00, 187500.00, 187500.00, 46314.11, 32328.76, 0.00, 0.00, 0.00
95, 17623.95, 16963.88, -55319.31, -187500.02, -187500.02, -78739.45, -43413.03, 72345.98, 74023.21, 187500.00, 120272.14, 187500.00, 187500.00, 187500.00, 46314.11, 32328.76, 0.00, 0.00, 0.00
96, 17623.95, 16963.88, -55319.31, -187500.02, -187500.02, -78739.45, -43413.03, 72345.98, 74325.38, 187500.00, 119996.09, 187500.00, 187500.00, 187500.00, 45595.03, 32848.30, 0.00, 0.00, 0.00
97, 17811.95, 17196.67, -55864.68, -187500.02, -187500.02, -78921.68, -43477.85, 72454.07, 74325.38, 187500.00, 119996.09, 187500.00, 187500.00, 187500.00, 45595.03, 32848.30, 0.79, -0.61, -0.09
98, 17811.95, 17196.67, -55864.68, -187500.02, -187500.02, -78921.68, -43477.85, 72454.07, 74686.09, 187500.00, 119843.92, 187500.00, 187500.00, 187500.00, 45155.53, 33553.68, 0.00, 0.00, 0.00
99, 17912.93, 17275.53, -56353.93, -187500.02, -187500.02, -79039.01, -43476.13, 72592.59, 74686.09, 187500.00, 119843.92, 187500.00, 187500.00, 187500.00, 45155.53, 33553.68, 0.00, 0.00, 0.00
100, 17912.93, 17275.53, -56353.93, -187500.02, -187500.02, -79039.01, -43476.13, 72592.59, 74883.30, 187500.00, 119608.85, 187500.00, 187500.00, 187500.00, 44707.80, 34159.28, 0.00, 0.00, 0.00
101, 18035.55, 17417.91, -56895.40, -187500.02, -187500.02, -79216.44, -43542.89, 72666.30, 74883.30, 187500.00, 119608.85, 187500.00, 187500.00, 187500.00, 44707.80, 34159.28, 0.00, 0.00, 0.00
102, 18035.55, 17417.91, -56895.40, -187500.02, -187500.02, -79216.44, -43542.89, 72666.30, 74998.95, 187500.00, 119306.86, 187500.00, 187500.00, 187500.00, 44424.07, 34674.95, 0.00, 0.00, 0.00
103, 18166.00, 17490.44, -57384.48, -187500.02, -187500.02, -79384.59, -43592.58, 72758.32, 74998.95, 187500.00, 119306.86, 187500.00, 187500.00, 187500.00, 44424.07, 34674.95, 0.00, 0.00, 0.00
104, 18166.00, 17490.44, -57384.48, -187500.02, -187500.02, -79384.59, -43592.58, 72758.32, 75037.22, 187500.00, 118844.09, 187500.00, 187500.00, 187500.00, 44239.40, 35059.38, 0.00, 0.00, 0.00
105, 18287.17, 17664.02, -57972.58, -187500.02, -187500.02, -79593.80, -43683.49, 72838.63, 75037.22, 187500.00, 118844.09, 187500.00, 187500.00, 187500.00, 44239.40, 35059.38, 0.00, 0.00, 0.00
106, 18287.17, 17664.02, -57972.58, -187500.02, -187500.02, -79593.80, -43683.49, 72838.63, 75037.95, 187500.00, 118436.41, 187500.00, 187500.00, 187500.00, 44166.06, 35583.75, 0.00, 0.00, 0.00
107, 18362.18, 17651.60, -58484.88, -187500.02, -187500.02, -79699.99, -43661.16, 72994.49, 75037.95, 187500.00, 118436.41, 187500.00, 187500.00, 187500.00, 44166.06, 35583.75, 0.79, -0.60, -0.09
108, 18362.18, 17651.60, -58484.88, -187500.02, -187500.02, -79699.99, -43661.16, 72994.49, 75000.74, 187500.00, 118045.80, 187500.00, 187500.00, 187500.00, 44133.77, 36042.39, 0.00, 0.00, 0.00
109, 18490.90, 17851.18, -59083.10, -187500.02, -187500.02, -79893.00, -43720.82, 73086.31, 75000.74, 187500.00, 118045.80, 187500.00, 187500.00, 187500.00, 44133.77, 36042.39, 0.00, 0.00, 0.00
110, 18490.90, 17851.18, -59083.10, -187500.02, -187500.02, -79893.00, -43720.82, 73086.31, 74980.76, 187500.00, 117686.09, 187500.00, 187500.00, 187500.00, 44159.47, 36407.57, 0.00, 0.00, 0.00
111, 18619.56, 17911.53, -59578.59, -187500.02, -187500.02, -80051.85, -43742.27, 73184.86, 74980.76, 187500.00, 117686.09, 187500.00, 187500.00, 187500.00, 44159.47, 36407.57, 0.00, 0.00, 0.00
112, 18619.56, 17911.53, -59578.59, -187500.02, -187500.02, -80051.85, -43742.27, 73184.86, 74988.78, 187500.00, 117375.82, 187500.00, 187500.00, 187500.00, 44186.40, 36679.59, 0.00, 0.00, 0.00
113, 18645.20, 17918.74, -60112.40, -187500.02, -187500.02, -80219.31, -43793.08, 73261.64, 74988.78, 187500.00, 117375.82, 187500.00, 187500.00, 187500.00, 44186.40, 36679.59, 0.00, 0.00, 0.00
114, 18645.20, 17918.74, -60112.40, -187500.02, -187500.02, -80219.31, -43793.08, 73261.64, 74991.76, 187500.00, 117062.77, 187500.00, 187500.00, 187500.00, 44229.70, 36806.19, 0.00, 0.00, 0.00
115, 18700.36, 17900.19, -60576.11, -187500.02, -187500.02, -80325.82, -43768.67, 73404.67, 74991.76, 187500.00, 117062.77, 187500.00, 187500.00, 187500.00, 44229.70, 36806.19, 0.00, 0.00, 0.00
116, 18700.36, 17900.19, -60576.11, -187500.02, -187500.02, -80325.82, -43768.67, 73404.67, 74937.62, 187500.00, 116707.33, 187500.00, 187500.00, 187500.00, 44340.63, 37025.80, 0.00, 0.00, 0.00
117, 18690.06, 17929.74, -61128.53, -187500.02, -187500.02, -80446.92, -43758.19, 73561.80, 74937.62, 187500.00, 116707.33, 187500.00, 187500.00, 187500.00, 44340.63, 37025.80, 0.80, -0.59, -0.09
118, 18690.06, 17929.74, -61128.53, -187500.02, -187500.02, -80446.92, -43758.19, 73561.80, 74916.54, 187500.00, 116292.50, 187500.00, 187500.00, 187500.00, 44346.64, 37220.32, 0.00, 0.00, 0.00
119, 18580.87, 17694.60, -61625.05, -187500.02, -187500.02, -80533.63, -43730.76, 73673.85, 74916.54, 187500.00, 116292.50, 187500.00, 187500.00, 187500.00, 44346.64, 37220.32, 0.00, 0.00, 0.00
120, 18580.87, 17694.60, -61625.05, -187500.02, -187500.02, -80533.63, -43730.76, 73673.85, 74826.24, 187500.00, 115922.58, 187500.00, 187500.00, 187500.00, 44654.98, 37668.79, 0.00, 0.00, 0.00
121, 18366.47, 17462.32, -62172.36, -187500.02, -187500.02, -80694.53, -43808.39, 73618.24, 74826.24, 187500.00, 115922.58, 187500.00, 187500.00, 187500.00, 44654.98, 37668.79, 0.00, 0.00, 0.00
122, 18366.47, 17462.32, -62172.36, -187500.02, -187500.02, -80694.53, -43808.39, 73618.24, 74779.77, 187500.00, 115500.60, 187500.00, 187500.00, 187500.00, 44904.90, 38179.55, 0.00, 0.00, 0.00
123, 18177.02, 17271.46, -62677.84, -187500.02, -187500.02, -80820.66, -43854.37, 73613.88, 74779.77, 187500.00, 115500.60, 187500.00, 187500.00, 187500.00, 44904.90, 38179.55, 0.00, 0.00, 0.00
124, 18177.02, 17271.46, -62677.84, -187500.02, -187500.02, -80820.66, -43854.37, 73613.88, 74854.45, 187500.00, 115191.74, 187500.00, 187500.00, 187500.00, 45069.00, 38324.86, 0.00, 0.00, 0.00
125, 17957.26, 16992.73, -63207.38, -187500.02, -187500.02, -80995.19, -43971.36, 73522.87, 74854.45, 187500.00, 115191.74, 187500.00, 187500.00, 187500.00, 45069.00, 38324.86, 0.00, 0.00, 0.00
126, 17957.26, 16992.73, -63207.38, -187500.02, -187500.02, -80995.19, -43971.36, 73522.87, 74951.77, 187500.00, 114959.09, 187500.00, 187500.00, 187500.00, 45043.66, 38265.40, 0.00, 0.00, 0.00
127, 17646.30, 16581.91, -63655.89, -187500.02, -187500.02, -81145.57, -44070.11, 73411.84, 74951.77, 187500.00, 114959.09, 187500.00, 187500.00, 187500.00, 45043.66, 38265.40, 0.81, -0.58, -0.07
128, 17646.30, 16581.91, -63655.89, -187500.02, -187500.02, -81145.57, -44070.11, 73411.84, 75151.03, 187500.00, 114826.52, 187500.00, 187500.00, 187500.00, 45071.29, 38315.29, 0.00, 0.00, 0.00
129, 17354.88, 16271.33, -64132.25, -187500.02, -187500.02, -81316.07, -44186.47, 73310.50, 75151.03, 187500.00, 114826.52, 187500.00, 187500.00, 187500.00, 45071.29, 38315.29, 0.00, 0.00, 0.00
130, 17354.88, 16271.33, -64132.25, -187500.02, -187500.02, -81316.07, -44186.47, 73310.50, 75451.95, 187500.00, 114581.25, 187500.00, 187500.00, 187500.00, 44990.35, 38394.84, 0.00, 0.00, 0.00
131, 17091.78, 15966.25, -64506.66, -187500.02, -187500.02, -81392.71, -44204.75, 73280.70, 75451.95, 187500.00, 114581.25, 187500.00, 187500.00, 187500.00, 44990.35, 38394.84, 0.00, 0.00, 0.00
132, 17091.78, 15966.25, -64506.66, -187500.02, -187500.02, -81392.71, -44204.75, 73280.70, 75896.89, 187500.00, 114466.63, 187500.00, 187500.00, 187500.00, 45105.59, 38619.39, 0.00, 0.00, 0.00
133, 16819.91, 15714.35, -64909.78, -187500.02, -187500.02, -81391.51, -44181.60, 73309.92, 75896.89, 187500.00, 114466.63, 187500.00, 187500.00, 187500.00, 45105.59, 38619.39, 0.00, 0.00, 0.00
134, 16819.91, 15714.35, -64909.78, -187500.02, -187500.02, -81391.51, -44181.60, 73309.92, 76408.52, 187500.00, 114291.20, 187500.00, 187500.00, 187500.00, 44938.67, 38876.57, 0.00, 0.00, 0.00
135, 16739.60, 15676.62, -65444.81, -187500.02, -187500.02, -81262.40, -44155.63, 73361.51, 76408.52, 187500.00, 114291.20, 187500.00, 187500.00, 187500.00, 44938.67, 38876.57, 0.00, 0.00, 0.00
136, 16739.60, 15676.62, -65444.81, -187500.02, -187500.02, -81262.40, -44155.63, 73361.51, 77120.73, 187500.00, 114199.91, 187500.00, 187500.00, 187500.00, 44985.84, 39225.34, 0.00, 0.00, 0.00
137, 16688.17, 15701.99, -65887.30, -187500.02, -187500.02, -81610.84, -44392.17, 73266.16, 77120.73, 187500.00, 114199.91, 187500.00, 187500.00, 187500.00, 44985.84, 39225.34, 0.81, -0.57, -0.09
138, 16688.17, 15701.99, -65887.30, -187500.02, -187500.02, -81610.84, -44392.17, 73266.16, 77784.90, 187500.00, 113967.59, 187500.00, 187500.00, 187500.00, 44945.24, 39143.71, 0.00, 0.00, 0.00
139, 16627.75, 15711.96, -66549.48, -187500.02, -187500.02, -81799.80, -44454.11, 73322.33, 77784.90, 187500.00, 113967.59, 187500.00, 187500.00, 187500.00, 44945.24, 39143.71, 0.00, 0.00, 0.00
140, 16627.75, 15711.96, -66549.48, -187500.02, -187500.02, -81799.80, -44454.11, 73322.33, 78240.27, 187500.00, 113881.28, 187500.00, 187500.00, 187500.00, 45081.07, 39121.05, 0.00, 0.00, 0.00
141, 16632.67, 15740.66, -67134.05, -187500.02, -187500.02, -81929.78, -44419.80, 73483.62, 78240.27, 187500.00, 113881.28, 187500.00, 187500.00, 187500.00, 45081.07, 39121.05, 0.00, 0.00, 0.00
142, 16632.67, 15740.66, -67134.05, -187500.02, -187500.02, -81929.78, -44419.80, 73483.62, 78912.25, 187500.00, 113825.92, 187500.00, 187500.00, 187500.00, 45005.84, 38711.32, 0.00, 0.00, 0.00
143, 16536.09, 15603.57, -67696.26, -187500.02, -187500.02, -82100.73, -44420.29, 73580.91, 78912.25, 187500.00, 113825.92, 187500.00, 187500.00, 187500.00, 45005.84, 38711.32, 0.00, 0.00, 0.00
144, 16536.09, 15603.57, -67696.26, -187500.02, -187500.02, -82100.73, -44420.29, 73580.91, 79720.38, 187500.00, 113838.68, 187500.00, 187500.00, 187500.00, 45027.05, 38402.80, 0.00, 0.00, 0.00
145, 16585.84, 15773.78, -68308.11, -187500.02, -187500.02, -82209.18, -44370.49, 73761.83, 79720.38, 187500.00, 113838.68, 187500.00, 187500.00, 187500.00, 45027.05, 38402.80, 0.00, 0.00, 0.00
146, 16585.84, 15773.78, -68308.11, -187500.02, -187500.02, -82209.18, -44370.49, 73761.83, 80271.88, 187500.00, 113756.80, 187500.00, 187500.00, 187500.00, 44772.69, 38645.47, 0.00, 0.00, 0.00
147, 16586.94, 15797.92, -68934.39, -187500.02, -187500.02, -82298.90, -44302.65, 73910.45, 80271.88, 187500.00, 113756.80, 187500.00, 187500.00, 187500.00, 44772.69, 38645.47, 0.80, -0.57, -0.08
148, 16586.94, 15797.92, -68934.39, -187500.02, -187500.02, -82298.90, -44302.65, 73910.45, 80774.80, 187500.00, 113780.73, 187500.00, 187500.00, 187500.00, 44385.11, 39108.02, 0.00, 0.00, 0.00
149, 16561.77, 15777.63, -69505.48, -187500.02, -187500.02, -82384.46, -44184.21, 74111.16, 80774.80, 187500.00, 113780.73, 187500.00, 187500.00, 187500.00, 44385.11, 39108.02, 0.00, 0.00, 0.00
150, 16561.77, 15777.63, -69505.48, -187500.02, -187500.02, -82384.46, -44184.21, 74111.16, 80982.16, 187500.00, 113735.55, 187500.00, 187500.00, 187500.00, 44148.36, 39165.15, 0.00, 0.00, 0.00
151, 16632.92, 15891.49, -70096.12, -187500.02, -187500.02, -82448.84, -44083.27, 74312.73, 80982.16, 187500.00, 113735.55, 187500.00, 187500.00, 187500.00, 44148.36, 39165.15, 0.00, 0.00, 0.00
152, 16632.92, 15891.49, -70096.12, -187500.02, -187500.02, -82448.84, -44083.27, 74312.73, 80895.74, 187500.00, 113617.98, 187500.00, 187500.00, 187500.00, 44044.29, 38934.26, 0.00, 0.00, 0.00
153, 16762.49, 15996.61, -70576.28, -187500.02, -187500.02, -82534.55, -44009.58, 74476.03, 80895.74, 187500.00, 113617.98, 187500.00, 187500.00, 187500.00, 44044.29, 38934.26, 0.00, 0.00, 0.00
154, 16762.49, 15996.61, -70576.28, -187500.02, -187500.02, -82534.55, -44009.58, 74476.03, 80872.77, 187500.00, 113438.67, 187500.00, 187500.00, 187500.00, 43620.03, 39037.52, 0.00, 0.00, 0.00
155, 16806.01, 16034.94, -71070.70, -187500.02, -187500.02, -82654.70, -43996.37, 74544.83, 80872.77, 187500.00, 113438.67, 187500.00, 187500.00, 187500.00, 43620.03, 39037.52, 0.00, 0.00, 0.00
156, 16806.01, 16034.94, -71070.70, -187500.02, -187500.02, -82654.70, -43996.37, 74544.83, 80978.00, 187500.00, 113365.90, 187500.00, 187500.00, 187500.00, 43367.28, 39174.96, 0.00, 0.00, 0.00
157, 16725.81, 15780.06, -71365.63, -187500.02, -187500.02, -82660.10, -43876.32, 74648.43, 80978.00, 187500.00, 113365.90, 187500.00, 187500.00, 187500.00, 43367.28, 39174.96, 0.79, -0.58, -0.07
158, 16725.81, 15780.06, -71365.63, -187500.02, -187500.02, -82660.10, -43876.32, 74648.43, 80866.69, 187500.00, 113269.67, 187500.00, 187500.00, 187500.00, 43388.20, 39384.15, 0.00, 0.00, 0.00
159, 16706.90, 15785.67, -71809.13, -187500.02, -187500.02, -82735.49, -43834.09, 74740.66, 80866.69, 187500.00, 113269.67, 187500.00, 187500.00, 187500.00, 43388.20, 39384.15, 0.00, 0.00, 0.00
160, 16706.90, 15785.67, -71809.13, -187500.02, -187500.02, -82735.49, -43834.09, 74740.66, 80706.27, 187500.00, 113068.33, 187500.00, 187500.00, 187500.00, 43485.61, 39508.14, 0.00, 0.00, 0.00
161, 16658.82, 15669.82, -72206.15, -187500.02, -187500.02, -82846.49, -43800.01, 74791.04, 80706.27, 187500.00, 113068.33, 187500.00, 187500.00, 187500.00, 43485.61, 39508.14, 0.00, 0.00, 0.00
162, 16658.82, 15669.82, -72206.15, -187500.02, -187500.02, -82846.49, -43800.01, 74791.04, 80578.08, 187500.00, 112805.59, 187500.00, 187500.00, 187500.00, 43494.77, 39452.73, 0.00, 0.00, 0.00
163, 16717.61, 15841.91, -72712.57, -187500.02, -187500.02, -83198.30, -43918.18, 74743.27, 80578.08, 187500.00, 112805.59, 187500.00, 187500.00, 187500.00, 43494.77, 39452.73, 0.00, 0.00, 0.00
164, 16717.61, 15841.91, -72712.57, -187500.02, -187500.02, -83198.30, -43918.18, 74743.27, 80461.41, 187500.00, 112454.80, 187500.00, 187500.00, 187500.00, 43443.52, 39304.42, 0.00, 0.00, 0.00
165, 16693.33, 15749.87, -73129.77, -187500.02, -187500.02, -83601.24, -43946.19, 74721.01, 80461.41, 187500.00, 112454.80, 187500.00, 187500.00, 187500.00, 43443.52, 39304.42, 0.00, 0.00, 0.00
166, 16693.33, 15749.87, -73129.77, -187500.02, -187500.02, -83601.24, -43946.19, 74721.01, 80242.52, 187500.00, 112060.31, 187500.00, 187500.00, 187500.00, 43328.52, 39222.91, 0.00, 0.00, 0.00
167, 16751.56, 15855.03, -73578.90, -187500.02, -187500.02, -83708.80, -43999.72, 74741.64, 80242.52, 187500.00, 112060.31, 187500.00, 187500.00, 187500.00, 43328.52, 39222.91, 0.80, -0.58, -0.08
168, 16751.56, 15855.03, -73578.90, -187500.02, -187500.02, -83708.80, -43999.72, 74741.64, 80039.18, 187500.00, 111714.84, 187500.00, 187500.00, 187500.00, 43250.78, 39236.12, 0.00, 0.00, 0.00
169, 16867.21, 15889.72, -73913.88, -187500.02, -187500.02, -83707.33, -43931.08, 74908.47, 80039.18, 187500.00, 111714.84, 187500.00, 187500.00, 187500.00, 43250.78, 39236.12, 0.00, 0.00, 0.00
170, 16867.21, 15889.72, -73913.88, -187500.02, -187500.02, -83707.33, -43931.08, 74908.47, 79956.23, 187500.00, 111450.27, 187500.00, 187500.00, 187500.00, 43091.86, 39153.06, 0.00, 0.00, 0.00
171, 16939.98, 15991.91, -74366.02, -187500.02, -187500.02, -83791.93, -43885.37, 75036.15, 79956.23, 187500.00, 111450.27, 187500.00, 187500.00, 187500.00, 43091.86, 39153.06, 0.00, 0.00, 0.00
172, 16939.98, 15991.91, -74366.02, -187500.02, -187500.02, -83791.93, -43885.37, 75036.15, 79816.47, 187500.00, 111138.88, 187500.00, 187500.00, 187500.00, 42683.80, 38798.94, 0.00, 0.00, 0.00
173, 16962.63, 16009.12, -74792.69, -187500.02, -187500.02, -83771.30, -43753.85, 75228.02, 79816.47, 187500.00, 111138.88, 187500.00, 187500.00, 187500.00, 42683.80, 38798.94, 0.00, 0.00, 0.00
174, 16962.63, 16009.12, -74792.69, -187500.02, -187500.02, -83771.30, -43753.85, 75228.02, 79669.28, 187500.00, 110913.60, 187500.00, 187500.00, 187500.00, 42346.41, 38649.76, 0.00, 0.00, 0.00
175, 16925.08, 15972.51, -75228.82, -187500.02, -187500.02, -83754.89, -43603.31, 75439.30, 79669.28, 187500.00, 110913.60, 187500.00, 187500.00, 187500.00, 42346.41, 38649.76, 0.00, 0.00, 0.00
176, 16925.08, 15972.51, -75228.82, -187500.02, -187500.02, -83754.89, -43603.31, 75439.30, 79571.83, 187500.00, 110752.42, 187500.00, 187500.00, 187500.00, 42162.45, 38686.91, 0.00, 0.00, 0.00
177, 16727.55, 15637.15, -75561.90, -187500.02, -187500.02, -83626.68, -43358.72, 75679.70, 79571.83, 187500.00, 110752.42, 187500.00, 187500.00, 187500.00, 42162.45, 38686.91, 0.79, -0.57, -0.08
178, 16727.55, 15637.15, -75561.90, -187500.02, -187500.02, -83626.68, -43358.72, 75679.70, 79522.34, 187500.00, 110703.11, 187500.00, 187500.00, 187500.00, 42125.32, 38824.29, 0.00, 0.00, 0.00
179, 16621.52, 15530.24, -75976.48, -187500.02, -187500.02, -83569.02, -43187.21, 75877.62, 79522.34, 187500.00, 110703.11, 187500.00, 187500.00, 187500.00, 42125.32, 38824.29, 0.00, 0.00, 0.00
180, 16621.52, 15530.24, -75976.48, -187500.02, -187500.02, -83569.02, -43187.21, 75877.62, 79373.16, 187500.00, 110454.34, 187500.00, 187500.00, 187500.00, 41878.18, 38812.53, 0.00, 0.00, 0.00
181, 16536.31, 15474.87, -76375.98, -187500.02, -187500.02, -83533.80, -43023.66, 76068.13, 79373.16, 187500.00, 110454.34, 187500.00, 187500.00, 187500.00, 41878.18, 38812.53, 0.00, 0.00, 0.00
182, 16536.31, 15474.87, -76375.98, -187500.02, -187500.02, -83533.80, -43023.66, 76068.13, 79335.50, 187500.00, 110408.43, 187500.00, 187500.00, 187500.00, 41785.73, 38878.27, 0.00, 0.00, 0.00
183, 16420.82, 15394.76, -76836.82, -187500.02, -187500.02, -83535.28, -42904.53, 76207.20, 79335.50, 187500.00, 110408.43, 187500.00, 187500.00, 187500.00, 41785.73, 38878.27, 0.00, 0.00, 0.00
184, 16420.82, 15394.76, -76836.82, -187500.02, -187500.02, -83535.28, -42904.53, 76207.20, 79322.20, 187500.00, 110302.84, 187500.00, 187500.00, 187500.00, 41524.87, 38840.89, 0.00, 0.00, 0.00
185, 16343.30, 15322.66, -77350.42, -187500.02, -187500.02, -83574.09, -42822.05, 76319.31, 79322.20, 187500.00, 110302.84, 187500.00, 187500.00, 187500.00, 41524.87, 38840.89, 0.00, 0.00, 0.00
186, 16343.30, 15322.66, -77350.42, -187500.02, -187500.02, -83574.09, -42822.05, 76319.31, 79446.70, 187500.00, 110288.80, 187500.00, 187500.00, 187500.00, 41392.77, 38901.02, 0.00, 0.00, 0.00
187, 16273.52, 15297.22, -77816.21, -187500.02, -187500.02, -83614.74, -42761.90, 76396.09, 79446.70, 187500.00, 110288.80, 187500.00, 187500.00, 187500.00, 41392.77, 38901.02, 0.80, -0.57, -0.07
188, 16273.52, 15297.22, -77816.21, -187500.02, -187500.02, -83614.74, -42761.90, 76396.09, 79558.02, 187500.00, 110157.69, 187500.00, 187500.00, 187500.00, 41175.98, 38867.34, 0.00, 0.00, 0.00
189, 16112.50, 15089.26, -78243.48, -187500.02, -187500.02, -83646.02, -42707.88, 76438.90, 79558.02, 187500.00, 110157.69, 187500.00, 187500.00, 187500.00, 41175.98, 38867.34, 0.00, 0.00, 0.00
190, 16112.50, 15089.26, -78243.48, -187500.02, -187500.02, -83646.02, -42707.88, 76438.90, 79707.28, 187500.00, 110044.67, 187500.00, 187500.00, 187500.00, 41050.43, 38917.18, 0.00, 0.00, 0.00
191, 15934.04, 14804.48, -78672.84, -187500.02, -187500.02, -83702.38, -42671.98, 76452.22, 79707.28, 187500.00, 110044.67, 187500.00, 187500.00, 187500.00, 41050.43, 38917.18, 0.00, 0.00, 0.00
192, 15934.04, 14804.48, -78672.84, -187500.02, -187500.02, -83702.38, -42671.98, 76452.22, 79837.23, 187500.00, 109774.20, 187500.00, 187500.00, 187500.00, 40816.68, 38964.52, 0.00, 0.00, 0.00
193, 15816.72, 14742.58, -79151.05, -187500.02, -187500.02, -83744.63, -42624.20, 76512.52, 79837.23, 187500.00, 109774.20, 187500.00, 187500.00, 187500.00, 40816.68, 38964.52, 0.00, 0.00, 0.00
194, 15816.72, 14742.58, -79151.05, -187500.02, -187500.02, -83744.63, -42624.20, 76512.52, 79989.27, 187500.00, 109593.80, 187500.00, 187500.00, 187500.00, 40790.88, 39196.69, 0.00, 0.00, 0.00
195, 15788.60, 14737.76, -79566.33, -187500.02, -187500.02, -83734.88, -42524.53, 76626.96, 79989.27, 187500.00, 109593.80, 187500.00, 187500.00, 187500.00, 40790.88, 39196.69, 0.00, 0.00, 0.00
196, 15788.60, 14737.76, -79566.33, -187500.02, -187500.02, -83734.88, -42524.53, 76626.96, 80075.48, 187500.00, 109387.45, 187500.00, 187500.00, 187500.00, 40531.49, 39348.79, 0.00, 0.00, 0.00
197, 15771.88, 14721.22, -79950.16, -187500.02, -187500.02, -83712.53, -42432.15, 76712.73, 80075.48, 187500.00, 109387.45, 187500.00, 187500.00, 187500.00, 40531.49, 39348.79, 0.81, -0.57, -0.07
198, 15771.88, 14721.22, -79950.16, -187500.02, -187500.02, -83712.53, -42432.15, 76712.73, 80288.27, 187500.00, 109335.09, 187500.00, 187500.00, 187500.00, 40387.32, 39504.38, 0.00, 0.00, 0.00
199, 15708.94, 14650.09, -80223.60, -187500.02, -187500.02, -83622.08, -42276.40, 76842.30, 80288.27, 187500.00, 109335.09, 187500.00, 187500.00, 187500.00, 40387.32, 39504.38, 0.00, 0.00, 0.00
200, 15708.94, 14650.09, -80223.60, -187500.02, -187500.02, -83622.08, -42276.40, 76842.30, 80432.19, 187500.00, 109152.30, 187500.00, 187500.00, 187500.00, 40172.72, 39557.91, 0.00, 0.00, 0.00
201, 15691.93, 14614.80, -80552.13, -187500.02, -187500.02, -83578.91, -42171.15, 76951.76, 80432.19, 187500.00, 109152.30, 187500.00, 187500.00, 187500.00, 40172.72, 39557.91, 0.00, 0.00, 0.00
202, 15691.93, 14614.80, -80552.13, -187500.02, -187500.02, -83578.91, -42171.15, 76951.76, 80609.10, 187500.00, 108967.03, 187500.00, 187500.00, 187500.00, 40072.21, 39686.93, 0.00, 0.00, 0.00
203, 15638.38, 14515.89, -80835.20, -187500.02, -187500.02, -83507.77, -42038.11, 77049.74, 80609.10, 187500.00, 108967.03, 187500.00, 187500.00, 187500.00, 40072.21, 39686.93, 0.00, 0.00, 0.00
204, 15638.38, 14515.89, -80835.20, -187500.02, -187500.02, -83507.77, -42038.11, 77049.74, 80767.94, 187500.00, 108736.30, 187500.00, 187500.00, 187500.00, 39938.59, 39773.65, 0.00, 0.00, 0.00
205, 15586.00, 14496.47, -81248.16, -187500.02, -187500.02, -83540.24, -42001.65, 77070.82, 80767.94, 187500.00, 108736.30, 187500.00, 187500.00, 187500.00, 39938.59, 39773.65, 0.00, 0.00, 0.00
206, 15586.00, 14496.47, -81248.16, -187500.02, -187500.02, -83540.24, -42001.65, 77070.82, 80841.12, 187500.00, 108542.93, 187500.00, 187500.00, 187500.00, 39781.63, 39890.87, 0.00, 0.00, 0.00
207, 15467.50, 14351.41, -81645.42, -187500.02, -187500.02, -83526.45, -41909.07, 77129.30, 80841.12, 187500.00, 108542.93, 187500.00, 187500.00, 187500.00, 39781.63, 39890.87, 0.80, -0.56, -0.07
208, 15467.50, 14351.41, -81645.42, -187500.02, -187500.02, -83526.45, -41909.07, 77129.30, 80851.53, 187500.00, 108325.29, 187500.00, 187500.00, 187500.00, 39624.23, 39977.66, 0.00, 0.00, 0.00
209, 15284.32, 14256.21, -82137.96, -187500.02, -187500.02, -83600.77, -41908.02, 77114.14, 80851.53, 187500.00, 108325.29, 187500.00, 187500.00, 187500.00, 39624.23, 39977.66, 0.00, 0.00, 0.00
210, 15284.32, 14256.21, -82137.96, -187500.02, -187500.02, -83600.77, -41908.02, 77114.14, 80922.61, 187500.00, 108036.08, 187500.00, 187500.00, 187500.00, 39439.92, 40056.65, 0.00, 0.00, 0.00
211, 15211.21, 14152.99, -82598.08, -187500.02, -187500.02, -83674.49, -41896.33, 77125.20, 80922.61, 187500.00, 108036.08, 187500.00, 187500.00, 187500.00, 39439.92, 40056.65, 0.00, 0.00, 0.00
212, 15211.21, 14152.99, -82598.08, -187500.02, -187500.02, -83674.49, -41896.33, 77125.20, 81078.24, 187500.00, 107760.41, 187500.00, 187500.00, 187500.00, 39237.93, 40146.66, 0.00, 0.00, 0.00
213, 15018.63, 14030.95, -83145.80, -187500.02, -187500.02, -83813.12, -41953.30, 77053.93, 81078.24, 187500.00, 107760.41, 187500.00, 187500.00, 187500.00, 39237.93, 40146.66, 0.00, 0.00, 0.00
214, 15018.63, 14030.95, -83145.80, -187500.02, -187500.02, -83813.12, -41953.30, 77053.93, 81363.59, 187500.00, 107496.24, 187500.00, 187500.00, 187500.00, 39009.36, 40237.86, 0.00, 0.00, 0.00
215, 14843.75, 13850.93, -83629.16, -187500.02, -187500.02, -83892.24, -41938.35, 77061.46, 81363.59, 187500.00, 107496.24, 187500.00, 187500.00, 187500.00, 39009.36, 40237.86, 0.00, 0.00, 0.00
216, 14843.75, 13850.93, -83629.16, -187500.02, -187500.02, -83892.24, -41938.35, 77061.46, 81797.86, 187500.00, 107336.78, 187500.00, 187500.00, 187500.00, 38808.66, 40479.48, 0.00, 0.00, 0.00
217, 14627.96, 13727.82, -84187.40, -187500.02, -187500.02, -84006.48, -41968.62, 77021.07, 81797.86, 187500.00, 107336.78, 187500.00, 187500.00, 187500.00, 38808.66, 40479.48, 0.80, -0.56, -0.08
218, 14627.96, 13727.82, -84187.40, -187500.02, -187500.02, -84006.48, -41968.62, 77021.07, 82321.88, 187500.00, 107228.06, 187500.00, 187500.00, 187500.00, 38653.27, 40727.94, 0.00, 0.00, 0.00
219, 14437.62, 13504.25, -84694.69, -187500.02, -187500.02, -84108.38, -41975.59, 76999.81, 82321.88, 187500.00, 107228.06, 187500.00, 187500.00, 187500.00, 38653.27, 40727.94, 0.00, 0.00, 0.00
220, 14437.62, 13504.25, -84694.69, -187500.02, -187500.02, -84108.38, -41975.59, 76999.81, 82810.10, 187500.00, 107200.51, 187500.00, 187500.00, 187500.00, 38517.42, 40990.75, 0.00, 0.00, 0.00
221, 14221.61, 13338.58, -85219.02, -187500.02, -187500.02, -84217.05, -41999.55, 76949.50, 82810.10, 187500.00, 107200.51, 187500.00, 187500.00, 187500.00, 38517.42, 40990.75, 0.00, 0.00, 0.00
222, 14221.61, 13338.58, -85219.02, -187500.02, -187500.02, -84217.05, -41999.55, 76949.50, 83213.17, 187500.00, 107106.23, 187500.00, 187500.00, 187500.00, 38376.51, 41107.14, 0.00, 0.00, 0.00
223, 14028.16, 13156.10, -85707.36, -187500.02, -187500.02, -84277.20, -41975.25, 76941.99, 83213.17, 187500.00, 107106.23, 187500.00, 187500.00, 187500.00, 38376.51, 41107.14, 0.00, 0.00, 0.00
224, 14028.16, 13156.10, -85707.36, -187500.02, -187500.02, -84277.20, -41975.25, 76941.99, 83564.09, 187500.00, 106988.88, 187500.00, 187500.00, 187500.00, 38311.94, 41232.17, 0.00, 0.00, 0.00
225, 13931.44, 13049.53, -86232.85, -187500.02, -187500.02, -84358.72, -41977.36, 76920.91, 83564.09, 187500.00, 106988.88, 187500.00, 187500.00, 187500.00, 38311.94, 41232.17, 0.00, 0.00, 0.00
226, 13931.44, 13049.53, -86232.85, -187500.02, -187500.02, -84358.72, -41977.36, 76920.91, 83918.30, 187500.00, 106760.78, 187500.00, 187500.00, 187500.00, 38190.05, 41111.16, 0.00, 0.00, 0.00
227, 13920.75, 13028.90, -86739.95, -187500.02, -187500.02, -84458.73, -41996.31, 76900.86, 83918.30, 187500.00, 106760.78, 187500.00, 187500.00, 187500.00, 38190.05, 41111.16, 0.80, -0.56, -0.08
228, 13920.75, 13028.90, -86739.95, -187500.02, -187500.02, -84458.73, -41996.31, 76900.86, 84148.15, 187500.00, 106654.16, 187500.00, 187500.00, 187500.00, 38116.56, 41159.33, 0.00, 0.00, 0.00
229, 13907.28, 13001.38, -87277.50, -187500.02, -187500.02, -84594.91, -42052.82, 76841.74, 84148.15, 187500.00, 106654.16, 187500.00, 187500.00, 187500.00, 38116.56, 41159.33, 0.00, 0.00, 0.00
230, 13907.28, 13001.38, -87277.50, -187500.02, -187500.02, -84594.91, -42052.82, 76841.74, 84171.70, 187500.00, 106404.72, 187500.00, 187500.00, 187500.00, 37886.90, 41148.11, 0.00, 0.00, 0.00
231, 13909.78, 12969.84, -87785.40, -187500.02, -187500.02, -84687.67, -42062.14, 76822.30, 84171.70, 187500.00, 106404.72, 187500.00, 187500.00, 187500.00, 37886.90, 41148.11, 0.00, 0.00, 0.00
232, 13909.78, 12969.84, -87785.40, -187500.02, -187500.02, -84687.67, -42062.14, 76822.30, 84132.74, 187500.00, 106125.25, 187500.00, 187500.00, 187500.00, 37825.99, 41149.83, 0.00, 0.00, 0.00
233, 13937.88, 13116.85, -88312.41, -187500.02, -187500.02, -84815.86, -42098.82, 76803.61, 84132.74, 187500.00, 106125.25, 187500.00, 187500.00, 187500.00, 37825.99, 41149.83, 0.00, 0.00, 0.00
234, 13937.88, 13116.85, -88312.41, -187500.02, -187500.02, -84815.86, -42098.82, 76803.61, 83934.17, 187500.00, 105680.12, 187500.00, 187500.00, 187500.00, 37633.03, 40980.83, 0.00, 0.00, 0.00
235, 14043.29, 13149.89, -88843.13, -187500.02, -187500.02, -84954.13, -42143.43, 76774.55, 83934.17, 187500.00, 105680.12, 187500.00, 187500.00, 187500.00, 37633.03, 40980.83, 0.00, 0.00, 0.00
236, 14043.29, 13149.89, -88843.13, -187500.02, -187500.02, -84954.13, -42143.43, 76774.55, 83661.86, 187500.00, 105288.89, 187500.00, 187500.00, 187500.00, 37488.30, 40893.81, 0.00, 0.00, 0.00
237, 14111.17, 13225.53, -89345.77, -187500.02, -187500.02, -85095.08, -42194.79, 76748.34, 83661.86, 187500.00, 105288.89, 187500.00, 187500.00, 187500.00, 37488.30, 40893.81, 0.80, -0.56, -0.09
238, 14111.17, 13225.53, -89345.77, -187500.02, -187500.02, -85095.08, -42194.79, 76748.34, 83355.48, 187500.00, 104841.70, 187500.00, 187500.00, 187500.00, 37162.39, 40686.07, 0.00, 0.00, 0.00
239, 14142.69, 13209.30, -89765.14, -187500.02, -187500.02, -85203.59, -42232.50, 76692.48, 83355.48, 187500.00, 104841.70, 187500.00, 187500.00, 187500.00, 37162.39, 40686.07, 0.00, 0.00, 0.00
240, 14142.69, 13209.30, -89765.14, -187500.02, -187500.02, -85203.59, -42232.50, 76692.48, 83129.35, 187500.00, 104501.33, 187500.00, 187500.00, 187500.00, 36928.93, 40584.73, 0.00, 0.00, 0.00
241, 14121.25, 13107.71, -90182.76, -187500.02, -187500.02, -85284.98, -42241.18, 76696.25, 83129.35, 187500.00, 104501.33, 187500.00, 187500.00, 187500.00, 36928.93, 40584.73, 0.00, 0.00, 0.00
242, 14121.25, 13107.71, -90182.76, -187500.02, -187500.02, -85284.98, -42241.18, 76696.25, 82945.22, 187500.00, 104063.70, 187500.00, 187500.00, 187500.00, 36506.68, 40381.09, 0.00, 0.00, 0.00
243, 14047.76, 13050.96, -90673.58, -187500.02, -187500.02, -85382.90, -42265.70, 76677.45, 82945.22, 187500.00, 104063.70, 187500.00, 187500.00, 187500.00, 36506.68, 40381.09, 0.00, 0.00, 0.00
244, 14047.76, 13050.96, -90673.58, -187500.02, -187500.02, -85382.90, -42265.70, 76677.45, 82903.16, 187500.00, 103775.84, 187500.00, 187500.00, 187500.00, 36260.12, 40245.75, 0.00, 0.00, 0.00
245, 13962.31, 12948.34, -91171.17, -187500.02, -187500.02, -85475.57, -42275.93, 76660.05, 82903.16, 187500.00, 103775.84, 187500.00, 187500.00, 187500.00, 36260.12, 40245.75, 0.00, 0.00, 0.00
246, 13962.31, 12948.34, -91171.17, -187500.02, -187500.02, -85475.57, -42275.93, 76660.05, 82819.65, 187500.00, 103422.05, 187500.00, 187500.00, 187500.00, 35964.69, 40056.71, 0.00, 0.00, 0.00
247, 13846.01, 12930.86, -91766.89, -187500.02, -187500.02, -85637.91, -42351.91, 76603.05, 82819.65, 187500.00, 103422.05, 187500.00, 187500.00, 187500.00, 35964.69, 40056.71, 0.80, -0.57, -0.08
248, 13846.01, 12930.86, -91766.89, -187500.02, -187500.02, -85637.91, -42351.91, 76603.05, 82748.91, 187500.00, 103068.77, 187500.00, 187500.00, 187500.00, 35674.16, 39891.31, 0.00, 0.00, 0.00
249, 13817.60, 12866.89, -92282.48, -187500.02, -187500.02, -85740.04, -42363.04, 76604.95, 82748.91, 187500.00, 103068.77, 187500.00, 187500.00, 187500.00, 35674.16, 39891.31, 0.00, 0.00, 0.00
250, 13817.60, 12866.89, -92282.48, -187500.02, -187500.02, -85740.04, -42363.04, 76604.95, 82716.25, 187500.00, 102686.88, 187500.00, 187500.00, 187500.00, 35350.13, 39810.78, 0.00, 0.00, 0.00
251, 13753.27, 12862.00, -92840.65, -187500.02, -187500.02, -85868.41, -42410.76, 76572.98, 82716.25, 187500.00, 102686.88, 187500.00, 187500.00, 187500.00, 35350.13, 39810.78, 0.00, 0.00, 0.00
252, 13753.27, 12862.00, -92840.65, -187500.02, -187500.02, -85868.41, -42410.76, 76572.98, 82677.70, 187500.00, 102330.10, 187500.00, 187500.00, 187500.00, 35061.41, 39853.76, 0.00, 0.00, 0.00
253, 13709.96, 12696.66, -93303.22, -187500.02, -187500.02, -85924.28, -42382.75, 76590.64, 82677.70, 187500.00, 102330.10, 187500.00, 187500.00, 187500.00, 35061.41, 39853.76, 0.00, 0.00, 0.00
254, 13709.96, 12696.66, -93303.22, -187500.02, -187500.02, -85924.28, -42382.75, 76590.64, 82579.39, 187500.00, 101985.69, 187500.00, 187500.00, 187500.00, 34717.38, 39770.48, 0.00, 0.00, 0.00
255, 13707.39, 12821.76, -93828.09, -187500.02, -187500.02, -86042.95, -42418.69, 76587.96, 82579.39, 187500.00, 101985.69, 187500.00, 187500.00, 187500.00, 34717.38, 39770.48, 0.00, 0.00, 0.00
0, 13707.39, 12821.76, -93828.09, -187500.02, -187500.02, -86042.95, -42418.69, 76587.96, 82504.48, 187500.00, 101667.73, 187500.00, 187500.00, 187500.00, 34513.55, 39761.58, 0.00, 0.00, 0.00
1, 13747.31, 12779.43, -94297.40, -187500.02, -187500.02, -86092.19, -42383.42, 76652.98, 82504.48, 187500.00, 101667.73, 187500.00, 187500.00, 187500.00, 34513.55, 39761.58, 0.80, -0.56, -0.08
2, 13747.31, 12779.43, -94297.40, -187500.02, -187500.02, -86092.19, -42383.42, 76652.98, 82423.09, 187500.00, 101302.59, 187500.00, 187500.00, 187500.00, 34280.24, 39660.11, 0.00, 0.00, 0.00
3, 13711.48, 12818.81, -94853.27, -187500.02, -187500.02, -86198.65, -42407.89, 76660.67, 82423.09, 187500.00, 101302.59, 187500.00, 187500.00, 187500.00, 34280.24, 39660.11, 0.00, 0.00, 0.00
4, 13711.48, 12818.81, -94853.27, -187500.02, -187500.02, -86198.65, -42407.89, 76660.67, 82248.63, 187500.00, 101014.39, 187500.00, 187500.00, 187500.00, 34043.27, 39516.00, 0.00, 0.00, 0.00
5, 13679.38, 12792.51, -95360.88, -187500.02, -187500.02, -86271.25, -42391.27, 76696.66, 82248.63, 187500.00, 101014.39, 187500.00, 187500.00, 187500.00, 34043.27, 39516.00, 0.00, 0.00, 0.00
6, 13679.38, 12792.51, -95360.88, -187500.02, -187500.02, -86271.25, -42391.27, 76696.66, 82061.37, 187500.00, 100740.92, 187500.00, 187500.00, 187500.00, 33847.25, 39366.00, 0.00, 0.00, 0.00
7, 13663.62, 12911.22, -95946.89, -187500.02, -187500.02, -86394.07, -42420.43, 76703.65, 82061.37, 187500.00, 100740.92, 187500.00, 187500.00, 187500.00, 33847.25, 39366.00, 0.00, 0.00, 0.00
8, 13663.62, 12911.22, -95946.89, -187500.02, -187500.02, -86394.07, -42420.43, 76703.65, 81909.87, 187500.00, 100431.80, 187500.00, 187500.00, 187500.00, 33610.61, 39140.81, 0.00, 0.00, 0.00
9, 13702.80, 12842.89, -96485.70, -187500.02, -187500.02, -86483.84, -42406.40, 76744.53, 81909.87, 187500.00, 100431.80, 187500.00, 187500.00, 187500.00, 33610.61, 39140.81, 0.00, 0.00, 0.00
10, 13702.80, 12842.89, -96485.70, -187500.02, -187500.02, -86483.84, -42406.40, 76744.53, 81793.14, 187500.00, 100196.43, 187500.00, 187500.00, 187500.00, 33497.78, 39003.39, 0.00, 0.00, 0.00
11, 13556.69, 12664.23, -97211.33, -187500.02, -187500.02, -86598.95, -42438.70, 76694.47, 81793.14, 187500.00, 100196.43, 187500.00, 187500.00, 187500.00, 33497.78, 39003.39, 0.80, -0.55, -0.09
12, 13556.69, 12664.23, -97211.33, -187500.02, -187500.02, -86598.95, -42438.70, 76694.47, 81613.30, 187500.00, 99873.65, 187500.00, 187500.00, 187500.00, 33190.60, 38908.73, 0.00, 0.00, 0.00
13, 13500.32, 12522.65, -97475.28, -187500.02, -187500.02, -86848.66, -42587.11, 76546.85, 81613.30, 187500.00, 99873.65, 187500.00, 187500.00, 187500.00, 33190.60, 38908.73, 0.00, 0.00, 0.00
14, 13500.32, 12522.65, -97475.28, -187500.02, -187500.02, -86848.66, -42587.11, 76546.85, 81431.18, 187500.00, 99509.90, 187500.00, 187500.00, 187500.00, 32968.66, 38801.44, 0.00, 0.00, 0.00
15, 13384.76, 12353.05, -97345.13, -187500.02, -187500.02, -87557.26, -43152.84, 76121.30, 81431.18, 187500.00, 99509.90, 187500.00, 187500.00, 187500.00, 32968.66, 38801.44, 0.00, 0.00, 0.00
16, 13384.76, 12353.05, -97345.13, -187500.02, -187500.02, -87557.26, -43152.84, 76121.30, 81200.87, 187500.00, 99063.71, 187500.00, 187500.00, 187500.00, 32678.36, 38699.59, 0.00, 0.00, 0.00
17, 13191.06, 12134.14, -97778.84, -187500.02, -187500.02, -87784.38, -43408.29, 75911.71, 81200.87, 187500.00, 99063.71, 187500.00, 187500.00, 187500.00, 32678.36, 38699.59, 0.00, 0.00, 0.00
18, 13191.06, 12134.14, -97778.84, -187500.02, -187500.02, -87784.38, -43408.29, 75911.71, 81060.23, 187500.00, 98821.71, 187500.00, 187500.00, 187500.00, 32460.90, 38740.13, 0.00, 0.00, 0.00
19, 13012.38, 12044.91, -98422.95, -187500.02, -187500.02, -88013.55, -43502.77, 75862.78, 81060.23, 187500.00, 98821.71, 187500.00, 187500.00, 187500.00, 32460.90, 38740.13, 0.00, 0.00, 0.00
20, 13012.38, 12044.91, -98422.95, -187500.02, -187500.02, -88013.55, -43502.77, 75862.78, 80874.46, 187500.00, 98507.95, 187500.00, 187500.00, 187500.00, 32151.46, 38667.40, 0.00, 0.00, 0.00
21, 12983.37, 11990.39, -98999.83, -187500.02, -187500.02, -88153.78, -43540.88, 75876.10, 80874.46, 187500.00, 98507.95, 187500.00, 187500.00, 187500.00, 32151.46, 38667.40, 0.80, -0.55, -0.08
22, 12983.37, 11990.39, -98999.83, -187500.02, -187500.02, -88153.78, -43540.88, 75876.10, 80753.66, 187500.00, 98262.76, 187500.00, 187500.00, 187500.00, 32052.04, 38606.98, 0.00, 0.00, 0.00
23, 12908.24, 11967.95, -99551.13, -187500.02, -187500.02, -88263.23, -43528.41, 75893.42, 80753.66, 187500.00, 98262.76, 187500.00, 187500.00, 187500.00, 32052.04, 38606.98, 0.00, 0.00, 0.00
24, 12908.24, 11967.95, -99551.13, -187500.02, -187500.02, -88263.23, -43528.41, 75893.42, 80518.85, 187500.00, 97894.34, 187500.00, 187500.00, 187500.00, 31779.96, 38528.01, 0.00, 0.00, 0.00
25, 13025.90, 12095.40, -100107.34, -187500.02, -187500.02, -88391.78, -43540.68, 75912.35, 80518.85, 187500.00, 97894.34, 187500.00, 187500.00, 187500.00, 31779.96, 38528.01, 0.00, 0.00, 0.00
26, 13025.90, 12095.40, -100107.34, -187500.02, -187500.02, -88391.78, -43540.68, 75912.35, 80312.88, 187500.00, 97601.80, 187500.00, 187500.00, 187500.00, 31579.13, 38495.18, 0.00, 0.00, 0.00
27, 13142.69, 12130.20, -100676.55, -187500.02, -187500.02, -88578.98, -43628.17, 75891.34, 80312.88, 187500.00, 97601.80, 187500.00, 187500.00, 187500.00, 31579.13, 38495.18, 0.00, 0.00, 0.00
28, 13142.69, 12130.20, -100676.55, -187500.02, -187500.02, -88578.98, -43628.17, 75891.34, 80019.33, 187500.00, 97224.92, 187500.00, 187500.00, 187500.00, 31340.88, 38389.70, 0.00, 0.00, 0.00
29, 13269.34, 12332.02, -101272.09, -187500.02, -187500.02, -88790.60, -43690.46, 75923.29, 80019.33, 187500.00, 97224.92, 187500.00, 187500.00, 187500.00, 31340.88, 38389.70, 0.00, 0.00, 0.00
30, 13269.34, 12332.02, -101272.09, -187500.02, -187500.02, -88790.60, -43690.46, 75923.29, 79819.20, 187500.00, 96842.08, 187500.00, 187500.00, 187500.00, 31142.42, 38455.68, 0.00, 0.00, 0.00
31, 13414.20, 12423.88, -101812.38, -187500.02, -187500.02, -88935.55, -43704.34, 75964.91, 79819.20, 187500.00, 96842.08, 187500.00, 187500.00, 187500.00, 31142.42, 38455.68, 0.80, -0.56, -0.08
32, 13414.20, 12423.88, -101812.38, -187500.02, -187500.02, -88935.55, -43704.34, 75964.91, 79627.69, 187500.00, 96424.04, 187500.00, 187500.00, 187500.00, 30830.10, 38361.54, 0.00, 0.00, 0.00
33, 13490.19, 12502.13, -102355.85, -187500.02, -187500.02, -89084.08, -43747.84, 75972.15, 79627.69, 187500.00, 96424.04, 187500.00, 187500.00, 187500.00, 30830.10, 38361.54, 0.00, 0.00, 0.00
34, 13490.19, 12502.13, -102355.85, -187500.02, -187500.02, -89084.08, -43747.84, 75972.15, 79460.70, 187500.00, 96160.27, 187500.00, 187500.00, 187500.00, 30641.65, 38354.68, 0.00, 0.00, 0.00
35, 13609.28, 12528.76, -102791.69, -187500.02, -187500.02, -89151.16, -43710.69, 76020.72, 79460.70, 187500.00, 96160.27, 187500.00, 187500.00, 187500.00, 30641.65, 38354.68, 0.00, 0.00, 0.00
36, 13609.28, 12528.76, -102791.69, -187500.02, -187500.02, -89151.16, -43710.69, 76020.72, 79221.77, 187500.00, 95804.45, 187500.00, 187500.00, 187500.00, 30306.71, 38285.68, 0.00, 0.00, 0.00
37, 13831.84, 12784.86, -103268.86, -187500.02, -187500.02, -89199.10, -43713.55, 76056.23, 79221.77, 187500.00, 95804.45, 187500.00, 187500.00, 187500.00, 30306.71, 38285.68, 0.00, 0.00, 0.00
38, 13831.84, 12784.86, -103268.86, -187500.02, -187500.02, -89199.10, -43713.55, 76056.23, 79061.49, 187500.00, 95530.30, 187500.00, 187500.00, 187500.00, 30191.37, 38102.50, 0.00, 0.00, 0.00
39, 14022.03, 12990.10, -103698.39, -187500.02, -187500.02, -89240.32, -43682.62, 76115.89, 79061.49, 187500.00, 95530.30, 187500.00, 187500.00, 187500.00, 30191.37, 38102.50, 0.00, 0.00, 0.00
40, 14022.03, 12990.10, -103698.39, -187500.02, -187500.02, -89240.32, -43682.62, 76115.89, 78886.16, 187500.00, 95199.59, 187500.00, 187500.00, 187500.00, 29780.44, 37948.28, 0.00, 0.00, 0.00
41, 14261.15, 13307.58, -104219.59, -187500.02, -187500.02, -89367.13, -43732.39, 76150.31, 78886.16, 187500.00, 95199.59, 187500.00, 187500.00, 187500.00, 29780.44, 37948.28, 0.80, -0.56, -0.09
42, 14261.15, 13307.58, -104219.59, -187500.02, -187500.02, -89367.13, -43732.39, 76150.31, 78734.13, 187500.00, 94924.28, 187500.00, 187500.00, 187500.00, 29474.95, 38002.79, 0.00, 0.00, 0.00
43, 14452.10, 13437.51, -104689.15, -187500.02, -187500.02, -89479.98, -43746.41, 76220.25, 78734.13, 187500.00, 94924.28, 187500.00, 187500.00, 187500.00, 29474.95, 38002.79, 0.00, 0.00, 0.00
44, 14452.10, 13437.51, -104689.15, -187500.02, -187500.02, -89479.98, -43746.41, 76220.25, 78517.25, 187500.00, 94561.73, 187500.00, 187500.00, 187500.00, 29196.00, 37959.03, 0.00, 0.00, 0.00
45, 14582.46, 13571.69, -105174.72, -187500.02, -187500.02, -89626.40, -43817.93, 76226.53, 78517.25, 187500.00, 94561.73, 187500.00, 187500.00, 187500.00, 29196.00, 37959.03, 0.00, 0.00, 0.00
46, 14582.46, 13571.69, -105174.72, -187500.02, -187500.02, -89626.40, -43817.93, 76226.53, 78296.62, 187500.00, 94231.69, 187500.00, 187500.00, 187500.00, 28973.36, 37966.36, 0.00, 0.00, 0.00
47, 14661.87, 13569.50, -105582.46, -187500.02, -187500.02, -89676.49, -43776.56, 76297.86, 78296.62, 187500.00, 94231.69, 187500.00, 187500.00, 187500.00, 28973.36, 37966.36, 0.00, 0.00, 0.00
48, 14661.87, 13569.50, -105582.46, -187500.02, -187500.02, -89676.49, -43776.56, 76297.86, 78101.48, 187500.00, 93927.81, 187500.00, 187500.00, 187500.00, 28736.68, 37888.60, 0.00, 0.00, 0.00
49, 14656.58, 13591.16, -106064.97, -187500.02, -187500.02, -89752.40, -43793.61, 76290.26, 78101.48, 187500.00, 93927.81, 187500.00, 187500.00, 187500.00, 28736.68, 37888.60, 0.00, 0.00, 0.00
50, 14656.58, 13591.16, -106064.97, -187500.02, -187500.02, -89752.40, -43793.61, 76290.26, 77905.80, 187500.00, 93625.64, 187500.00, 187500.00, 187500.00, 28560.72, 37848.07, 0.00, 0.00, 0.00
51, 14798.93, 13727.66, -106478.99, -187500.02, -187500.02, -89839.55, -43799.85, 76344.86, 77905.80, 187500.00, 93625.64, 187500.00, 187500.00, 187500.00, 28560.72, 37848.07, 0.81, -0.56, -0.09
52, 14798.93, 13727.66, -106478.99, -187500.02, -187500.02, -89839.55, -43799.85, 76344.86, 77701.84, 187500.00, 93254.27, 187500.00, 187500.00, 187500.00, 28359.27, 37827.40, 0.00, 0.00, 0.00
53, 14931.41, 13955.13, -107075.13, -187500.02, -187500.02, -90213.83, -44155.49, 76053.71, 77701.84, 187500.00, 93254.27, 187500.00, 187500.00, 187500.00, 28359.27, 37827.40, 0.00, 0.00, 0.00
54, 14931.41, 13955.13, -107075.13, -187500.02, -187500.02, -90213.83, -44155.49, 76053.71, 77527.09, 187500.00, 92911.33, 187500.00, 187500.00, 187500.00, 28215.88, 37905.36, 0.00, 0.00, 0.00
55, 15137.25, 14238.62, -107867.59, -187500.02, -187500.02, -91060.89, -45000.25, 75767.45, 77527.09, 187500.00, 92911.33, 187500.00, 187500.00, 187500.00, 28215.88, 37905.36, 0.00, 0.00, 0.00
56, 15137.25, 14238.62, -107867.59, -187500.02, -187500.02, -91060.89, -45000.25, 75767.45, 77349.95, 187500.00, 92603.90, 187500.00, 187500.00, 187500.00, 28101.97, 37998.16, 0.00, 0.00, 0.00
57, 15255.96, 14322.73, -108546.82, -187500.02, -187500.02, -91376.16, -44993.30, 76173.31, 77349.95, 187500.00, 92603.90, 187500.00, 187500.00, 187500.00, 28101.97, 37998.16, 0.00, 0.00, 0.00
58, 15255.96, 14322.73, -108546.82, -187500.02, -187500.02, -91376.16, -44993.30, 76173.31, 77163.47, 187500.00, 92270.68, 187500.00, 187500.00, 187500.00, 27899.29, 37907.98, 0.00, 0.00, 0.00
59, 15418.23, 14342.29, -108832.61, -187500.02, -187500.02, -91461.28, -45153.76, 75987.73, 77163.47, 187500.00, 92270.68, 187500.00, 187500.00, 187500.00, 27899.29, 37907.98, 0.00, 0.00, 0.00
60, 15418.23, 14342.29, -108832.61, -187500.02, -187500.02, -91461.28, -45153.76, 75987.73, 77037.14, 187500.00, 91999.24, 187500.00, 187500.00, 187500.00, 27714.82, 37812.82, 0.80, -0.57, -0.09
61, 15481.85, 14467.66, -109289.09, -187500.02, -187500.02, -91608.94, -45224.42, 76015.04, 77037.14, 187500.00, 91999.24, 187500.00, 187500.00, 187500.00, 27714.82, 37812.82, 0.00, 0.00, 0.00
62, 15481.85, 14467.66, -109289.09, -187500.02, -187500.02, -91608.94, -45224.42, 76015.04, 76887.07, 187500.00, 91689.83, 187500.00, 187500.00, 187500.00, 27515.82, 37749.26, 0.00, 0.00, 0.00
63, 15656.77, 14633.46, -109691.02, -187500.02, -187500.02, -91650.98, -45151.95, 76169.63, 76887.07, 187500.00, 91689.83, 187500.00, 187500.00, 187500.00, 27515.82, 37749.26, 0.00, 0.00, 0.00
64, 15656.77, 14633.46, -109691.02, -187500.02, -187500.02, -91650.98, -45151.95, 76169.63, 76756.13, 187500.00, 91428.84, 187500.00, 187500.00, 187500.00, 27389.31, 37725.92, 0.00, 0.00, 0.00
65, 15814.66, 14850.36, -110102.88, -187500.02, -187500.02, -91701.90, -45133.63, 76250.85, 76756.13, 187500.00, 91428.84, 187500.00, 187500.00, 187500.00, 27389.31, 37725.92, 0.00, 0.00, 0.00
66, 15814.66, 14850.36, -110102.88, -187500.02, -187500.02, -91701.90, -45133.63, 76250.85, 76588.20, 187500.00, 91094.95, 187500.00, 187500.00, 187500.00, 27171.38, 37617.79, 0.00, 0.00, 0.00
67, 15999.83, 15005.89, -110488.02, -187500.02, -187500.02, -91681.63, -45046.12, 76393.12, 76588.20, 187500.00, 91094.95, 187500.00, 187500.00, 187500.00, 27171.38, 37617.79, 0.00, 0.00, 0.00
68, 15999.83, 15005.89, -110488.02, -187500.02, -187500.02, -91681.63, -45046.12, 76393.12, 76455.77, 187500.00, 90838.41, 187500.00, 187500.00, 187500.00, 27027.21, 37575.81, 0.00, 0.00, 0.00
69, 16152.87, 15189.44, -110887.89, -187500.02, -187500.02, -91725.66, -45022.49, 76494.04, 76455.77, 187500.00, 90838.41, 187500.00, 187500.00, 187500.00, 27027.21, 37575.81, 0.00, 0.00, 0.00
70, 16152.87, 15189.44, -110887.89, -187500.02, -187500.02, -91725.66, -45022.49, 76494.04, 76274.79, 187500.00, 90464.73, 187500.00, 187500.00, 187500.00, 26787.96, 37465.10, 0.81, -0.57, -0.09
71, 16375.27, 15409.72, -111279.59, -187500.02, -187500.02, -91720.02, -44961.79, 76635.57, 76274.79, 187500.00, 90464.73, 187500.00, 187500.00, 187500.00, 26787.96, 37465.10, 0.00, 0.00, 0.00
72, 16375.27, 15409.72, -111279.59, -187500.02, -187500.02, -91720.02, -44961.79, 76635.57, 76156.44, 187500.00, 90164.09, 187500.00, 187500.00, 187500.00, 26639.88, 37426.83, 0.00, 0.00, 0.00
73, 16532.40, 15605.63, -111702.64, -187500.02, -187500.02, -91757.35, -44942.67, 76732.58, 76156.44, 187500.00, 90164.09, 187500.00, 187500.00, 187500.00, 26639.88, 37426.83, 0.00, 0.00, 0.00
74, 16532.40, 15605.63, -111702.64, -187500.02, -187500.02, -91757.35, -44942.67, 76732.58, 76039.83, 187500.00, 89803.56, 187500.00, 187500.00, 187500.00, 26354.58, 37264.74, 0.00, 0.00, 0.00
75, 16725.07, 15803.33, -112136.46, -187500.02, -187500.02, -91809.85, -44930.60, 76827.70, 76039.83, 187500.00, 89803.56, 187500.00, 187500.00, 187500.00, 26354.58, 37264.74, 0.00, 0.00, 0.00
76, 16725.07, 15803.33, -112136.46, -187500.02, -187500.02, -91809.85, -44930.60, 76827.70, 75978.43, 187500.00, 89542.60, 187500.00, 187500.00, 187500.00, 26161.20, 37188.43, 0.00, 0.00, 0.00
77, 16836.23, 15943.54, -112587.50, -187500.02, -187500.02, -91906.23, -44939.93, 76910.83, 75978.43, 187500.00, 89542.60, 187500.00, 187500.00, 187500.00, 26161.20, 37188.43, 0.00, 0.00, 0.00
78, 16836.23, 15943.54, -112587.50, -187500.02, -187500.02, -91906.23, -44939.93, 76910.83, 75850.62, 187500.00, 89188.73, 187500.00, 187500.00, 187500.00, 25848.81, 37002.02, 0.00, 0.00, 0.00
79, 16931.02, 16014.35, -113028.61, -187500.02, -187500.02, -91996.70, -44946.56, 76978.16, 75850.62, 187500.00, 89188.73, 187500.00, 187500.00, 187500.00, 25848.81, 37002.02, 0.00, 0.00, 0.00
80, 16931.02, 16014.35, -113028.61, -187500.02, -187500.02, -91996.70, -44946.56, 76978.16, 75798.80, 187500.00, 88962.13, 187500.00, 187500.00, 187500.00, 25692.10, 36933.04, 0.80, -0.56, -0.09
81, 16971.81, 15985.77, -113405.46, -187500.02, -187500.02, -92032.30, -44904.43, 77064.27, 75798.80, 187500.00, 88962.13, 187500.00, 187500.00, 187500.00, 25692.10, 36933.04, 0.00, 0.00, 0.00
82, 16971.81, 15985.77, -113405.46, -187500.02, -187500.02, -92032.30, -44904.43, 77064.27, 75694.41, 187500.00, 88675.63, 187500.00, 187500.00, 187500.00, 25437.00, 36802.95, 0.00, 0.00, 0.00
83, 17028.74, 16073.38, -113803.16, -187500.02, -187500.02, -92100.56, -44893.59, 77139.91, 75694.41, 187500.00, 88675.63, 187500.00, 187500.00, 187500.00, 25437.00, 36802.95, 0.00, 0.00, 0.00
84, 17028.74, 16073.38, -113803.16, -187500.02, -187500.02, -92100.56, -44893.59, 77139.91, 75630.21, 187500.00, 88467.76, 187500.00, 187500.00, 187500.00, 25294.28, 36774.34, 0.00, 0.00, 0.00
85, 17036.52, 15974.14, -114120.67, -187500.02, -187500.02, -92091.22, -44808.77, 77246.40, 75630.21, 187500.00, 88467.76, 187500.00, 187500.00, 187500.00, 25294.28, 36774.34, 0.00, 0.00, 0.00
86, 17036.52, 15974.14, -114120.67, -187500.02, -187500.02, -92091.22, -44808.77, 77246.40, 75525.55, 187500.00, 88210.40, 187500.00, 187500.00, 187500.00, 25095.55, 36690.48, 0.00, 0.00, 0.00
87, 17057.44, 16020.30, -114485.19, -187500.02, -187500.02, -92102.57, -44753.40, 77338.53, 75525.55, 187500.00, 88210.40, 187500.00, 187500.00, 187500.00, 25095.55, 36690.48, 0.00, 0.00, 0.00
88, 17057.44, 16020.30, -114485.19, -187500.02, -187500.02, -92102.57, -44753.40, 77338.53, 75484.37, 187500.00, 87981.25, 187500.00, 187500.00, 187500.00, 24938.40, 36658.09, 0.00, 0.00, 0.00
89, 17077.07, 15926.38, -114776.74, -187500.02, -187500.02, -92033.84, -44609.10, 77485.67, 75484.37, 187500.00, 87981.25, 187500.00, 187500.00, 187500.00, 24938.40, 36658.09, 0.00, 0.00, 0.00
90, 17077.07, 15926.38, -114776.74, -187500.02, -187500.02, -92033.84, -44609.10, 77485.67, 75441.47, 187500.00, 87749.08, 187500.00, 187500.00, 187500.00, 24746.55, 36576.73, 0.79, -0.56, -0.09
91, 17076.69, 15978.14, -115124.82, -187500.02, -187500.02, -91991.22, -44502.48, 77610.13, 75441.47, 187500.00, 87749.08, 187500.00, 187500.00, 187500.00, 24746.55, 36576.73, 0.00, 0.00, 0.00
92, 17076.69, 15978.14, -115124.82, -187500.02, -187500.02, -91991.22, -44502.48, 77610.13, 75433.40, 187500.00, 87557.26, 187500.00, 187500.00, 187500.00, 24591.66, 36540.50, 0.00, 0.00, 0.00
93, 17118.91, 15977.92, -115418.15, -187500.02, -187500.02, -91933.28, -44378.23, 77740.80, 75433.40, 187500.00, 87557.26, 187500.00, 187500.00, 187500.00, 24591.66, 36540.50, 0.00, 0.00, 0.00
94, 17118.91, 15977.92, -115418.15, -187500.02, -187500.02, -91933.28, -44378.23, 77740.80, 75409.48, 187500.00, 87338.34, 187500.00, 187500.00, 187500.00, 24407.34, 36457.35, 0.00, 0.00, 0.00
95, 17134.94, 16055.06, -115789.52, -187500.02, -187500.02, -91916.59, -44300.75, 77835.27, 75409.48, 187500.00, 87338.34, 187500.00, 187500.00, 187500.00, 24407.34, 36457.35, 0.00, 0.00, 0.00
96, 17134.94, 16055.06, -115789.52, -187500.02, -187500.02, -91916.59, -44300.75, 77835.27, 75389.97, 187500.00, 87144.58, 187500.00, 187500.00, 187500.00, 24285.28, 36448.30, 0.00, 0.00, 0.00
97, 17284.65, 16226.56, -116100.68, -187500.02, -187500.02, -91868.30, -44192.17, 77997.51, 75389.97, 187500.00, 87144.58, 187500.00, 187500.00, 187500.00, 24285.28, 36448.30, 0.00, 0.00, 0.00
98, 17284.65, 16226.56, -116100.68, -187500.02, -187500.02, -91868.30, -44192.17, 77997.51, 75358.59, 187500.00, 86935.25, 187500.00, 187500.00, 187500.00, 24129.85, 36409.71, 0.00, 0.00, 0.00
99, 17389.39, 16413.62, -116488.08, -187500.02, -187500.02, -91873.27, -44148.61, 78097.06, 75358.59, 187500.00, 86935.25, 187500.00, 187500.00, 187500.00, 24129.85, 36409.71, 0.00, 0.00, 0.00
100, 17389.39, 16413.62, -116488.08, -187500.02, -187500.02, -91873.27, -44148.61, 78097.06, 75338.23, 187500.00, 86757.06, 187500.00, 187500.00, 187500.00, 23986.82, 36368.68, 0.79, -0.57, -0.09
101, 17465.38, 16405.91, -116794.72, -187500.02, -187500.02, -91803.82, -44014.63, 78240.94, 75338.23, 187500.00, 86757.06, 187500.00, 187500.00, 187500.00, 23986.82, 36368.68, 0.00, 0.00, 0.00
102, 17465.38, 16405.91, -116794.72, -187500.02, -187500.02, -91803.82, -44014.63, 78240.94, 75312.44, 187500.00, 86595.75, 187500.00, 187500.00, 187500.00, 23854.74, 36340.85, 0.00, 0.00, 0.00
103, 17706.69, 16755.85, -117240.87, -187500.02, -187500.02, -91856.19, -44002.20, 78349.77, 75312.44, 187500.00, 86595.75, 187500.00, 187500.00, 187500.00, 23854.74, 36340.85, 0.00, 0.00, 0.00
104, 17706.69, 16755.85, -117240.87, -187500.02, -187500.02, -91856.19, -44002.20, 78349.77, 75311.09, 187500.00, 86380.77, 187500.00, 187500.00, 187500.00, 23651.65, 36254.68, 0.00, 0.00, 0.00
105, 17771.58, 16843.74, -117603.45, -187500.02, -187500.02, -91834.84, -43911.74, 78493.76, 75311.09, 187500.00, 86380.77, 187500.00, 187500.00, 187500.00, 23651.65, 36254.68, 0.00, 0.00, 0.00
106, 17771.58, 16843.74, -117603.45, -187500.02, -187500.02, -91834.84, -43911.74, 78493.76, 75346.39, 187500.00, 86233.14, 187500.00, 187500.00, 187500.00, 23507.31, 36179.58, 0.00, 0.00, 0.00
107, 17869.17, 16903.39, -118031.11, -187500.02, -187500.02, -91852.10, -43881.32, 78576.82, 75346.39, 187500.00, 86233.14, 187500.00, 187500.00, 187500.00, 23507.31, 36179.58, 0.00, 0.00, 0.00
108, 17869.17, 16903.39, -118031.11, -187500.02, -187500.02, -91852.10, -43881.32, 78576.82, 75376.12, 187500.00, 86019.01, 187500.00, 187500.00, 187500.00, 23257.64, 36055.80, 0.00, 0.00, 0.00
109, 17992.95, 17040.05, -118417.73, -187500.02, -187500.02, -91852.63, -43822.98, 78704.98, 75376.12, 187500.00, 86019.01, 187500.00, 187500.00, 187500.00, 23257.64, 36055.80, 0.00, 0.00, 0.00
110, 17992.95, 17040.05, -118417.73, -187500.02, -187500.02, -91852.63, -43822.98, 78704.98, 75437.49, 187500.00, 85854.68, 187500.00, 187500.00, 187500.00, 23079.07, 35978.77, 0.79, -0.57, -0.09
111, 18033.59, 17084.09, -118871.49, -187500.02, -187500.02, -91888.76, -43808.81, 78767.08, 75437.49, 187500.00, 85854.68, 187500.00, 187500.00, 187500.00, 23079.07, 35978.77, 0.00, 0.00, 0.00
112, 18033.59, 17084.09, -118871.49, -187500.02, -187500.02, -91888.76, -43808.81, 78767.08, 75480.70, 187500.00, 85644.88, 187500.00, 187500.00, 187500.00, 22913.64, 35866.39, 0.00, 0.00, 0.00
113, 17995.10, 16939.72, -119241.84, -187500.02, -187500.02, -91858.36, -43725.62, 78864.44, 75480.70, 187500.00, 85644.88, 187500.00, 187500.00, 187500.00, 22913.64, 35866.39, 0.00, 0.00, 0.00
114, 17995.10, 16939.72, -119241.84, -187500.02, -187500.02, -91858.36, -43725.62, 78864.44, 75572.23, 187500.00, 85571.77, 187500.00, 187500.00, 187500.00, 22862.15, 35856.98, 0.00, 0.00, 0.00
115, 17897.71, 16831.67, -119646.20, -187500.02, -187500.02, -91852.14, -43666.34, 78922.71, 75572.23, 187500.00, 85571.77, 187500.00, 187500.00, 187500.00, 22862.15, 35856.98, 0.00, 0.00, 0.00
116, 17897.71, 16831.67, -119646.20, -187500.02, -187500.02, -91852.14, -43666.34, 78922.71, 75627.59, 187500.00, 85497.27, 187500.00, 187500.00, 187500.00, 22790.91, 35810.87, 0.00, 0.00, 0.00
117, 17880.46, 16837.39, -120045.96, -187500.02, -187500.02, -91859.09, -43597.57, 79014.98, 75627.59, 187500.00, 85497.27, 187500.00, 187500.00, 187500.00, 22790.91, 35810.87, 0.00, 0.00, 0.00
118, 17880.46, 16837.39, -120045.96, -187500.02, -187500.02, -91859.09, -43597.57, 79014.98, 75711.19, 187500.00, 85422.69, 187500.00, 187500.00, 187500.00, 22716.68, 35802.49, 0.00, 0.00, 0.00
119, 17906.54, 16954.98, -120511.26, -187500.02, -187500.02, -91924.09, -43584.09, 79069.47, 75711.19, 187500.00, 85422.69, 187500.00, 187500.00, 187500.00, 22716.68, 35802.49, 0.00, 0.00, 0.00
120, 17906.54, 16954.98, -120511.26, -187500.02, -187500.02, -91924.09, -43584.09, 79069.47, 75717.38, 187500.00, 85138.38, 187500.00, 187500.00, 187500.00, 22577.45, 35703.74, 0.80, -0.57, -0.09
121, 17892.50, 16944.01, -120912.41, -187500.02, -187500.02, -91927.02, -43511.38, 79149.11, 75717.38, 187500.00, 85138.38, 187500.00, 187500.00, 187500.00, 22577.45, 35703.74, 0.00, 0.00, 0.00
122, 17892.50, 16944.01, -120912.41, -187500.02, -187500.02, -91927.02, -43511.38, 79149.11, 75758.53, 187500.00, 85053.81, 187500.00, 187500.00, 187500.00, 22490.35, 35755.55, 0.00, 0.00, 0.00
123, 17973.82, 16991.84, -121344.09, -187500.02, -187500.02, -91963.99, -43480.07, 79219.52, 75758.53, 187500.00, 85053.81, 187500.00, 187500.00, 187500.00, 22490.35, 35755.55, 0.00, 0.00, 0.00
124, 17973.82, 16991.84, -121344.09, -187500.02, -187500.02, -91963.99, -43480.07, 79219.52, 75725.95, 187500.00, 84856.98, 187500.00, 187500.00, 187500.00, 22339.36, 35690.53, 0.00, 0.00, 0.00
125, 18034.35, 17094.93, -121769.57, -187500.02, -187500.02, -92003.64, -43439.36, 79287.55, 75725.95, 187500.00, 84856.98, 187500.00, 187500.00, 187500.00, 22339.36, 35690.53, 0.00, 0.00, 0.00
126, 18034.35, 17094.93, -121769.57, -187500.02, -187500.02, -92003.64, -43439.36, 79287.55, 75725.00, 187500.00, 84724.11, 187500.00, 187500.00, 187500.00, 22304.63, 35703.38, 0.00, 0.00, 0.00
127, 18073.06, 17098.23, -122187.35, -187500.02, -187500.02, -92037.98, -43388.38, 79355.44, 75725.00, 187500.00, 84724.11, 187500.00, 187500.00, 187500.00, 22304.63, 35703.38, 0.00, 0.00, 0.00
128, 18073.06, 17098.23, -122187.35, -187500.02, -187500.02, -92037.98, -43388.38, 79355.44, 75669.64, 187500.00, 84455.84, 187500.00, 187500.00, 187500.00, 22123.67, 35603.33, 0.00, 0.00, 0.00
129, 18128.74, 17156.33, -122636.82, -187500.02, -187500.02, -92093.88, -43357.60, 79428.13, 75669.64, 187500.00, 84455.84, 187500.00, 187500.00, 187500.00, 22123.67, 35603.33, 0.00, 0.00, 0.00
130, 18128.74, 17156.33, -122636.82, -187500.02, -187500.02, -92093.88, -43357.60, 79428.13, 75694.34, 187500.00, 84249.63, 187500.00, 187500.00, 187500.00, 22020.13, 35576.71, 0.81, -0.57, -0.08
131, 18234.91, 17302.31, -123037.88, -187500.02, -187500.02, -92102.77, -43296.69, 79532.31, 75694.34, 187500.00, 84249.63, 187500.00, 187500.00, 187500.00, 22020.13, 35576.71, 0.00, 0.00, 0.00
132, 18234.91, 17302.31, -123037.88, -187500.02, -187500.02, -92102.77, -43296.69, 79532.31, 75668.38, 187500.00, 83909.81, 187500.00, 187500.00, 187500.00, 21795.54, 35365.62, 0.00, 0.00, 0.00
133, 18378.79, 17446.94, -123469.36, -187500.02, -187500.02, -92104.47, -43257.80, 79618.70, 75668.38, 187500.00, 83909.81, 187500.00, 187500.00, 187500.00, 21795.54, 35365.62, 0.00, 0.00, 0.00
134, 18378.79, 17446.94, -123469.36, -187500.02, -187500.02, -92104.47, -43257.80, 79618.70, 75677.02, 187500.00, 83663.23, 187500.00, 187500.00, 187500.00, 21673.50, 35256.66, 0.00, 0.00, 0.00
135, 18491.22, 17561.52, -123886.55, -187500.02, -187500.02, -92095.42, -43165.31, 79748.43, 75677.02, 187500.00, 83663.23, 187500.00, 187500.00, 187500.00, 21673.50, 35256.66, 0.00, 0.00, 0.00
136, 18491.22, 17561.52, -123886.55, -187500.02, -187500.02, -92095.42, -43165.31, 79748.43, 75638.03, 187500.00, 83374.46, 187500.00, 187500.00, 187500.00, 21478.86, 35066.64, 0.00, 0.00, 0.00
137, 18565.02, 17730.63, -124410.07, -187500.02, -187500.02, -92157.38, -43131.42, 79846.91, 75638.03, 187500.00, 83374.46, 187500.00, 187500.00, 187500.00, 21478.86, 35066.64, 0.00, 0.00, 0.00
138, 18565.02, 17730.63, -124410.07, -187500.02, -187500.02, -92157.38, -43131.42, 79846.91, 75612.06, 187500.00, 83124.03, 187500.00, 187500.00, 187500.00, 21310.38, 34972.14, 0.00, 0.00, 0.00
139, 18644.62, 17785.17, -124836.68, -187500.02, -187500.02, -92164.42, -43046.35, 79967.30, 75612.06, 187500.00, 83124.03, 187500.00, 187500.00, 187500.00, 21310.38, 34972.14, 0.00, 0.00, 0.00
140, 18644.62, 17785.17, -124836.68, -187500.02, -187500.02, -92164.42, -43046.35, 79967.30, 75547.89, 187500.00, 82824.77, 187500.00, 187500.00, 187500.00, 21047.63, 34836.18, 0.81, -0.57, -0.08
141, 18804.61, 18020.78, -125341.54, -187500.02, -187500.02, -92226.49, -43041.72, 80039.70, 75547.89, 187500.00, 82824.77, 187500.00, 187500.00, 187500.00, 21047.63, 34836.18, 0.00, 0.00, 0.00
142, 18804.61, 18020.78, -125341.54, -187500.02, -187500.02, -92226.49, -43041.72, 80039.70, 75532.94, 187500.00, 82564.79, 187500.00, 187500.00, 187500.00, 20879.12, 34772.16, 0.00, 0.00, 0.00
143, 18886.26, 17980.53, -125767.25, -187500.02, -187500.02, -92262.05, -42978.02, 80136.09, 75532.94, 187500.00, 82564.79, 187500.00, 187500.00, 187500.00, 20879.12, 34772.16, 0.00, 0.00, 0.00
144, 18886.26, 17980.53, -125767.25, -187500.02, -187500.02, -92262.05, -42978.02, 80136.09, 75489.59, 187500.00, 82254.59, 187500.00, 187500.00, 187500.00, 20633.14, 34627.19, 0.00, 0.00, 0.00
145, 19029.96, 18180.80, -126311.83, -187500.02, -187500.02, -92365.63, -42979.65, 80210.62, 75489.59, 187500.00, 82254.59, 187500.00, 187500.00, 187500.00, 20633.14, 34627.19, 0.00, 0.00, 0.00
146, 19029.96, 18180.80, -126311.83, -187500.02, -187500.02, -92365.63, -42979.65, 80210.62, 75443.66, 187500.00, 81978.51, 187500.00, 187500.00, 187500.00, 20441.16, 34483.38, 0.00, 0.00, 0.00
147, 19064.27, 18087.81, -126687.96, -187500.02, -187500.02, -92365.88, -42865.61, 80352.41, 75443.66, 187500.00, 81978.51, 187500.00, 187500.00, 187500.00, 20441.16, 34483.38, 0.00, 0.00, 0.00
148, 19064.27, 18087.81, -126687.96, -187500.02, -187500.02, -92365.88, -42865.61, 80352.41, 75299.98, 187500.00, 81661.27, 187500.00, 187500.00, 187500.00, 20236.11, 34365.34, 0.00, 0.00, 0.00
149, 19177.48, 18246.22, -127089.35, -187500.02, -187500.02, -92349.56, -42774.89, 80471.17, 75299.98, 187500.00, 81661.27, 187500.00, 187500.00, 187500.00, 20236.11, 34365.34, 0.00, 0.00, 0.00
150, 19177.48, 18246.22, -127089.35, -187500.02, -187500.02, -92349.56, -42774.89, 80471.17, 75102.89, 187500.00, 81287.93, 187500.00, 187500.00, 187500.00, 19984.40, 34253.11, 0.81, -0.57, -0.07
151, 19269.01, 18124.52, -127344.81, -187500.02, -187500.02, -92243.14, -42594.02, 80619.66, 75102.89, 187500.00, 81287.93, 187500.00, 187500.00, 187500.00, 19984.40, 34253.11, 0.00, 0.00, 0.00
152, 19269.01, 18124.52, -127344.81, -187500.02, -187500.02, -92243.14, -42594.02, 80619.66, 74838.24, 187500.00, 80942.34, 187500.00, 187500.00, 187500.00, 19798.01, 34144.39, 0.00, 0.00, 0.00
153, 19371.79, 18218.17, -127738.34, -187500.02, -187500.02, -92253.23, -42524.28, 80703.74, 74838.24, 187500.00, 80942.34, 187500.00, 187500.00, 187500.00, 19798.01, 34144.39, 0.00, 0.00, 0.00
154, 19371.79, 18218.17, -127738.34, -187500.02, -187500.02, -92253.23, -42524.28, 80703.74, 74519.41, 187500.00, 80476.16, 187500.00, 187500.00, 187500.00, 19504.91, 33893.54, 0.00, 0.00, 0.00
155, 19500.76, 18296.40, -128094.13, -187500.02, -187500.02, -92258.27, -42440.51, 80797.40, 74519.41, 187500.00, 80476.16, 187500.00, 187500.00, 187500.00, 19504.91, 33893.54, 0.00, 0.00, 0.00
156, 19500.76, 18296.40, -128094.13, -187500.02, -187500.02, -92258.27, -42440.51, 80797.40, 74117.91, 187500.00, 79962.65, 187500.00, 187500.00, 187500.00, 19155.85, 33662.13, 0.00, 0.00, 0.00
157, 19597.96, 18384.11, -128551.09, -187500.02, -187500.02, -92351.51, -42455.75, 80806.34, 74117.91, 187500.00, 79962.65, 187500.00, 187500.00, 187500.00, 19155.85, 33662.13, 0.00, 0.00, 0.00
158, 19597.96, 18384.11, -128551.09, -187500.02, -187500.02, -92351.51, -42455.75, 80806.34, 73609.55, 187500.00, 79358.70, 187500.00, 187500.00, 187500.00, 18767.13, 33473.95, 0.00, 0.00, 0.00
159, 19600.00, 18295.08, -128931.34, -187500.02, -187500.02, -92410.78, -42439.82, 80822.25, 73609.55, 187500.00, 79358.70, 187500.00, 187500.00, 187500.00, 18767.13, 33473.95, 0.00, 0.00, 0.00
160, 19600.00, 18295.08, -128931.34, -187500.02, -187500.02, -92410.78, -42439.82, 80822.25, 73099.52, 187500.00, 78816.16, 187500.00, 187500.00, 187500.00, 18474.81, 33344.02, 0.79, -0.57, -0.08
161, 19604.89, 18251.85, -129349.43, -187500.02, -187500.02, -92498.65, -42460.64, 80799.81, 73099.52, 187500.00, 78816.16, 187500.00, 187500.00, 187500.00, 18474.81, 33344.02, 0.00, 0.00, 0.00
162, 19604.89, 18251.85, -129349.43, -187500.02, -187500.02, -92498.65, -42460.64, 80799.81, 72450.67, 187500.00, 78135.77, 187500.00, 187500.00, 187500.00, 17990.87, 33174.30, 0.00, 0.00, 0.00
163, 19586.68, 18231.74, -129749.30, -187500.02, -187500.02, -92586.24, -42469.21, 80807.70, 72450.67, 187500.00, 78135.77, 187500.00, 187500.00, 187500.00, 17990.87, 33174.30, 0.00, 0.00, 0.00
164, 19586.68, 18231.74, -129749.30, -187500.02, -187500.02, -92586.24, -42469.21, 80807.70, 71743.76, 187500.00, 77442.45, 187500.00, 187500.00, 187500.00, 17608.19, 33122.76, 0.00, 0.00, 0.00
165, 19586.14, 18234.71, -130168.55, -187500.02, -187500.02, -92697.35, -42508.57, 80789.30, 71743.76, 187500.00, 77442.45, 187500.00, 187500.00, 187500.00, 17608.19, 33122.76, 0.00, 0.00, 0.00
166, 19586.14, 18234.71, -130168.55, -187500.02, -187500.02, -92697.35, -42508.57, 80789.30, 71069.90, 187500.00, 76715.34, 187500.00, 187500.00, 187500.00, 17179.88, 33026.18, 0.00, 0.00, 0.00
167, 19594.63, 18169.15, -130516.66, -187500.02, -187500.02, -92739.24, -42471.66, 80837.20, 71069.90, 187500.00, 76715.34, 187500.00, 187500.00, 187500.00, 17179.88, 33026.18, 0.00, 0.00, 0.00
168, 19594.63, 18169.15, -130516.66, -187500.02, -187500.02, -92739.24, -42471.66, 80837.20, 70482.11, 187500.00, 76031.60, 187500.00, 187500.00, 187500.00, 16933.81, 33023.72, 0.00, 0.00, 0.00
169, 19681.47, 18380.02, -130919.41, -187500.02, -187500.02, -92813.34, -42429.27, 80934.63, 70482.11, 187500.00, 76031.60, 187500.00, 187500.00, 187500.00, 16933.81, 33023.72, 0.00, 0.00, 0.00
170, 19681.47, 18380.02, -130919.41, -187500.02, -187500.02, -92813.34, -42429.27, 80934.63, 69922.18, 187500.00, 75231.05, 187500.00, 187500.00, 187500.00, 16614.79, 32950.79, 0.75, -0.55, -0.09
171, 19839.81, 18570.01, -131293.14, -187500.02, -187500.02, -92820.20, -42301.95, 81126.70, 69922.18, 187500.00, 75231.05, 187500.00, 187500.00, 187500.00, 16614.79, 32950.79, 0.00, 0.00, 0.00
172, 19839.81, 18570.01, -131293.14, -187500.02, -187500.02, -92820.20, -42301.95, 81126.70, 69515.30, 187500.00, 74562.73, 187500.00, 187500.00, 187500.00, 16384.65, 33114.40, 0.00, 0.00, 0.00
173, 20074.41, 18966.04, -131697.03, -187500.02, -187500.02, -92813.34, -42139.30, 81381.73, 69515.30, 187500.00, 74562.73, 187500.00, 187500.00, 187500.00, 16384.65, 33114.40, 0.00, 0.00, 0.00
174, 20074.41, 18966.04, -131697.03, -187500.02, -187500.02, -92813.34, -42139.30, 81381.73, 69259.20, 187500.00, 73997.10, 187500.00, 187500.00, 187500.00, 16144.13, 33296.18, 0.00, 0.00, 0.00
175, 20393.89, 19401.38, -132131.89, -187500.02, -187500.02, -92782.36, -41935.25, 81703.54, 69259.20, 187500.00, 73997.10, 187500.00, 187500.00, 187500.00, 16144.13, 33296.18, 0.00, 0.00, 0.00
176, 20393.89, 19401.38, -132131.89, -187500.02, -187500.02, -92782.36, -41935.25, 81703.54, 69335.31, 187500.00, 73563.41, 187500.00, 187500.00, 187500.00, 16076.94, 33609.29, 0.00, 0.00, 0.00
177, 20791.68, 20045.65, -132650.33, -187500.02, -187500.02, -92842.37, -41822.79, 82025.16, 69335.31, 187500.00, 73563.41, 187500.00, 187500.00, 187500.00, 16076.94, 33609.29, 0.00, 0.00, 0.00
178, 20791.68, 20045.65, -132650.33, -187500.02, -187500.02, -92842.37, -41822.79, 82025.16, 69601.74, 187500.00, 73143.78, 187500.00, 187500.00, 187500.00, 15933.93, 33780.50, 0.00, 0.00, 0.00
179, 21152.17, 20520.62, -133274.66, -187500.02, -187500.02, -92968.95, -41745.30, 82312.38, 69601.74, 187500.00, 73143.78, 187500.00, 187500.00, 187500.00, 15933.93, 33780.50, 0.00, 0.00, 0.00
180, 21152.17, 20520.62, -133274.66, -187500.02, -187500.02, -92968.95, -41745.30, 82312.38, 70049.20, 187500.00, 72910.16, 187500.00, 187500.00, 187500.00, 15835.16, 34022.86, 0.75, -0.56, -0.09
181, 21475.71, 20881.45, -133904.45, -187500.02, -187500.02, -93074.27, -41705.29, 82604.09, 70049.20, 187500.00, 72910.16, 187500.00, 187500.00, 187500.00, 15835.16, 34022.86, 0.00, 0.00, 0.00
182, 21475.71, 20881.45, -133904.45, -187500.02, -187500.02, -93074.27, -41705.29, 82604.09, 70422.70, 187500.00, 72566.14, 187500.00, 187500.00, 187500.00, 15561.57, 34132.45, 0.00, 0.00, 0.00
183, 21738.08, 21192.98, -134548.36, -187500.02, -187500.02, -93174.63, -41646.11, 82827.31, 70422.70, 187500.00, 72566.14, 187500.00, 187500.00, 187500.00, 15561.57, 34132.45, 0.00, 0.00, 0.00
184, 21738.08, 21192.98, -134548.36, -187500.02, -187500.02, -93174.63, -41646.11, 82827.31, 70813.14, 187500.00, 72296.29, 187500.00, 187500.00, 187500.00, 15296.33, 34247.70, 0.00, 0.00, 0.00
185, 21806.47, 21189.43, -135080.08, -187500.02, -187500.02, -93193.05, -41451.46, 82983.93, 70813.14, 187500.00, 72296.29, 187500.00, 187500.00, 187500.00, 15296.33, 34247.70, 0.00, 0.00, 0.00
186, 21806.47, 21189.43, -135080.08, -187500.02, -187500.02, -93193.05, -41451.46, 82983.93, 71035.52, 187500.00, 71878.05, 187500.00, 187500.00, 187500.00, 14932.78, 34313.05, 0.00, 0.00, 0.00
187, 21748.72, 21129.46, -135704.66, -187500.02, -187500.02, -93283.35, -41435.84, 83005.70, 71035.52, 187500.00, 71878.05, 187500.00, 187500.00, 187500.00, 14932.78, 34313.05, 0.00, 0.00, 0.00
188, 21748.72, 21129.46, -135704.66, -187500.02, -187500.02, -93283.35, -41435.84, 83005.70, 71181.84, 187500.00, 71391.00, 187500.00, 187500.00, 187500.00, 14691.15, 34447.32, 0.00, 0.00, 0.00
189, 21551.78, 20802.14, -136282.41, -187500.02, -187500.02, -93352.21, -41424.20, 82961.85, 71181.84, 187500.00, 71391.00, 187500.00, 187500.00, 187500.00, 14691.15, 34447.32, 0.00, 0.00, 0.00
190, 21551.78, 20802.14, -136282.41, -187500.02, -187500.02, -93352.21, -41424.20, 82961.85, 71228.44, 187500.00, 70824.56, 187500.00, 187500.00, 187500.00, 14420.05, 34539.16, 0.80, -0.58, -0.09
191, 21278.01, 20551.65, -136981.39, -187500.02, -187500.02, -93551.70, -41455.53, 82809.99, 71228.44, 187500.00, 70824.56, 187500.00, 187500.00, 187500.00, 14420.05, 34539.16, 0.00, 0.00, 0.00
192, 21278.01, 20551.65, -136981.39, -187500.02, -187500.02, -93551.70, -41455.53, 82809.99, 71217.88, 187500.00, 70164.23, 187500.00, 187500.00, 187500.00, 13954.22, 34989.62, 0.00, 0.00, 0.00
193, 21023.20, 20252.74, -137604.73, -187500.02, -187500.02, -93717.91, -41548.18, 82580.15, 71217.88, 187500.00, 70164.23, 187500.00, 187500.00, 187500.00, 13954.22, 34989.62, 0.00, 0.00, 0.00
194, 21023.20, 20252.74, -137604.73, -187500.02, -187500.02, -93717.91, -41548.18, 82580.15, 71042.09, 187500.00, 69401.49, 187500.00, 187500.00, 187500.00, 13318.82, 35315.40, 0.00, 0.00, 0.00
195, 20640.05, 19799.38, -138316.86, -187500.02, -187500.02, -94001.24, -41725.23, 82247.84, 71042.09, 187500.00, 69401.49, 187500.00, 187500.00, 187500.00, 13318.82, 35315.40, 0.00, 0.00, 0.00
196, 20640.05, 19799.38, -138316.86, -187500.02, -187500.02, -94001.24, -41725.23, 82247.84, 70790.14, 187500.00, 68463.05, 187500.00, 187500.00, 187500.00, 12774.16, 35514.53, 0.00, 0.00, 0.00
197, 20311.95, 19413.90, -138963.14, -187500.02, -187500.02, -94286.23, -41881.69, 81928.59, 70790.14, 187500.00, 68463.05, 187500.00, 187500.00, 187500.00, 12774.16, 35514.53, 0.00, 0.00, 0.00
198, 20311.95, 19413.90, -138963.14, -187500.02, -187500.02, -94286.23, -41881.69, 81928.59, 70485.38, 187500.00, 67770.95, 187500.00, 187500.00, 187500.00, 12295.85, 35748.04, 0.00, 0.00, 0.00
199, 19854.76, 18985.08, -139662.69, -187500.02, -187500.02, -94631.63, -42117.59, 81455.12, 70485.38, 187500.00, 67770.95, 187500.00, 187500.00, 187500.00, 12295.85, 35748.04, 0.00, 0.00, 0.00
200, 19854.76, 18985.08, -139662.69, -187500.02, -187500.02, -94631.63, -42117.59, 81455.12, 70245.41, 187500.00, 66894.01, 187500.00, 187500.00, 187500.00, 11521.99, 35877.84, 0.81, -0.57, -0.10
201, 19533.37, 18708.12, -140341.33, -187500.02, -187500.02, -94970.68, -42365.94, 80986.73, 70245.41, 187500.00, 66894.01, 187500.00, 187500.00, 187500.00, 11521.99, 35877.84, 0.00, 0.00, 0.00
202, 19533.37, 18708.12, -140341.33, -187500.02, -187500.02, -94970.68, -42365.94, 80986.73, 70032.62, 187500.00, 65774.37, 187500.00, 187500.00, 187500.00, 10524.68, 35849.76, 0.00, 0.00, 0.00
203, 19240.96, 18473.25, -141094.89, -187500.02, -187500.02, -95393.09, -42695.05, 80555.15, 70032.62, 187500.00, 65774.37, 187500.00, 187500.00, 187500.00, 10524.68, 35849.76, 0.00, 0.00, 0.00
204, 19240.96, 18473.25, -141094.89, -187500.02, -187500.02, -95393.09, -42695.05, 80555.15, 69898.17, 187500.00, 64233.41, 187500.00, 187500.00, 187500.00, 9447.37, 35649.20, 0.00, 0.00, 0.00
205, 19105.87, 18339.96, -141796.59, -187500.02, -187500.02, -95773.63, -42984.50, 80119.29, 69898.17, 187500.00, 64233.41, 187500.00, 187500.00, 187500.00, 9447.37, 35649.20, 0.00, 0.00, 0.00
206, 19105.87, 18339.96, -141796.59, -187500.02, -187500.02, -95773.63, -42984.50, 80119.29, 69830.09, 187500.00, 62665.30, 187500.00, 187500.00, 187500.00, 8840.36, 34954.57, 0.00, 0.00, 0.00
207, 18788.07, 18004.78, -142527.95, -187500.02, -187500.02, -96173.85, -43326.20, 79693.98, 69830.09, 187500.00, 62665.30, 187500.00, 187500.00, 187500.00, 8840.36, 34954.57, 0.00, 0.00, 0.00
208, 18788.07, 18004.78, -142527.95, -187500.02, -187500.02, -96173.85, -43326.20, 79693.98, 69821.48, 187500.00, 60758.92, 187500.00, 187500.00, 187500.00, 8534.07, 33339.79, 0.00, 0.00, 0.00
209, 18548.64, 17823.37, -143257.73, -187500.02, -187500.02, -96589.91, -43667.15, 79326.95, 69821.48, 187500.00, 60758.92, 187500.00, 187500.00, 187500.00, 8534.07, 33339.79, 0.00, 0.00, 0.00
210, 18548.64, 17823.37, -143257.73, -187500.02, -187500.02, -96589.91, -43667.15, 79326.95, 69847.50, 187500.00, 58241.63, 187500.00, 187500.00, 187500.00, 8724.00, 31829.58, 0.82, -0.57, -0.09
211, 18324.81, 17705.22, -144058.19, -187500.02, -187500.02, -97086.14, -44113.58, 78886.16, 69847.50, 187500.00, 58241.63, 187500.00, 187500.00, 187500.00, 8724.00, 31829.58, 0.00, 0.00, 0.00
212, 18324.81, 17705.22, -144058.19, -187500.02, -187500.02, -97086.14, -44113.58, 78886.16, 69770.27, 187500.00, 56001.94, 187500.00, 187500.00, 187500.00, 8393.44, 29616.75, 0.00, 0.00, 0.00
213, 18110.21, 17512.55, -144780.45, -187500.02, -187500.02, -97519.09, -44479.81, 78587.59, 69770.27, 187500.00, 56001.94, 187500.00, 187500.00, 187500.00, 8393.44, 29616.75, 0.00, 0.00, 0.00
214, 18110.21, 17512.55, -144780.45, -187500.02, -187500.02, -97519.09, -44479.81, 78587.59, 69774.03, 187500.00, 54185.79, 187500.00, 187500.00, 187500.00, 9191.62, 28147.39, 0.00, 0.00, 0.00
215, 18218.32, 17687.29, -145484.95, -187500.02, -187500.02, -97864.18, -44769.76, 78457.33, 69774.03, 187500.00, 54185.79, 187500.00, 187500.00, 187500.00, 9191.62, 28147.39, 0.00, 0.00, 0.00
216, 18218.32, 17687.29, -145484.95, -187500.02, -187500.02, -97864.18, -44769.76, 78457.33, 69726.42, 187500.00, 52685.74, 187500.00, 187500.00, 187500.00, 9942.44, 27389.36, 0.00, 0.00, 0.00
217, 18561.96, 18039.11, -146062.94, -187500.02, -187500.02, -98025.05, -44859.21, 78535.18, 69726.42, 187500.00, 52685.74, 187500.00, 187500.00, 187500.00, 9942.44, 27389.36, 0.00, 0.00, 0.00
218, 18561.96, 18039.11, -146062.94, -187500.02, -187500.02, -98025.05, -44859.21, 78535.18, 69831.32, 187500.00, 51946.32, 187500.00, 187500.00, 187500.00, 10708.74, 27220.45, 0.00, 0.00, 0.00
219, 19022.68, 18516.25, -146561.33, -187500.02, -187500.02, -98003.14, -44757.98, 78862.67, 69831.32, 187500.00, 51946.32, 187500.00, 187500.00, 187500.00, 10708.74, 27220.45, 0.00, 0.00, 0.00
220, 19022.68, 18516.25, -146561.33, -187500.02, -187500.02, -98003.14, -44757.98, 78862.67, 70182.58, 187500.00, 51681.81, 187500.00, 187500.00, 187500.00, 10941.76, 28133.29, 0.86, -0.59, -0.08
221, 19602.39, 19048.00, -146986.23, -187500.02, -187500.02, -97743.55, -44402.14, 79485.55, 70182.58, 187500.00, 51681.81, 187500.00, 187500.00, 187500.00, 10941.76, 28133.29, 0.00, 0.00, 0.00
222, 19602.39, 19048.00, -146986.23, -187500.02, -187500.02, -97743.55, -44402.14, 79485.55, 70641.19, 187500.00, 51539.32, 187500.00, 187500.00, 187500.00, 11060.67, 29529.20, 0.00, 0.00, 0.00
223, 20250.79, 19715.85, -147388.34, -187500.02, -187500.02, -97348.23, -43894.89, 80314.93, 70641.19, 187500.00, 51539.32, 187500.00, 187500.00, 187500.00, 11060.67, 29529.20, 0.00, 0.00, 0.00
224, 20250.79, 19715.85, -147388.34, -187500.02, -187500.02, -97348.23, -43894.89, 80314.93, 70960.10, 187500.00, 51351.54, 187500.00, 187500.00, 187500.00, 11089.64, 30816.91, 0.00, 0.00, 0.00
225, 20866.47, 20247.66, -147791.39, -187500.02, -187500.02, -96852.38, -43287.06, 81227.09, 70960.10, 187500.00, 51351.54, 187500.00, 187500.00, 187500.00, 11089.64, 30816.91, 0.00, 0.00, 0.00
226, 20866.47, 20247.66, -147791.39, -187500.02, -187500.02, -96852.38, -43287.06, 81227.09, 71282.52, 187500.00, 51334.98, 187500.00, 187500.00, 187500.00, 11346.46, 31865.05, 0.00, 0.00, 0.00
227, 21373.68, 20596.77, -148188.75, -187500.02, -187500.02, -96523.62, -42810.45, 81912.95, 71282.52, 187500.00, 51334.98, 187500.00, 187500.00, 187500.00, 11346.46, 31865.05, 0.00, 0.00, 0.00
228, 21373.68, 20596.77, -148188.75, -187500.02, -187500.02, -96523.62, -42810.45, 81912.95, 71446.77, 187500.00, 51036.30, 187500.00, 187500.00, 187500.00, 11281.26, 32312.53, 0.00, 0.00, 0.00
229, 21759.91, 20905.21, -148686.91, -187500.02, -187500.02, -96454.34, -42564.25, 82304.26, 71446.77, 187500.00, 51036.30, 187500.00, 187500.00, 187500.00, 11281.26, 32312.53, 0.00, 0.00, 0.00
230, 21759.91, 20905.21, -148686.91, -187500.02, -187500.02, -96454.34, -42564.25, 82304.26, 71472.54, 187500.00, 50395.43, 187500.00, 187500.00, 187500.00, 11184.86, 32226.34, 0.81, -0.56, -0.08
231, 21870.22, 20814.68, -149182.83, -187500.02, -187500.02, -96315.09, -42353.89, 82545.39, 71472.54, 187500.00, 50395.43, 187500.00, 187500.00, 187500.00, 11184.86, 32226.34, 0.00, 0.00, 0.00
232, 21870.22, 20814.68, -149182.83, -187500.02, -187500.02, -96315.09, -42353.89, 82545.39, 71419.14, 187500.00, 49464.97, 187500.00, 187500.00, 187500.00, 10900.66, 32004.61, 0.00, 0.00, 0.00
233, 21752.07, 20515.08, -149735.27, -187500.02, -187500.02, -96271.17, -42269.74, 82607.91, 71419.14, 187500.00, 49464.97, 187500.00, 187500.00, 187500.00, 10900.66, 32004.61, 0.00, 0.00, 0.00
234, 21752.07, 20515.08, -149735.27, -187500.02, -187500.02, -96271.17, -42269.74, 82607.91, 71451.55, 187500.00, 48763.57, 187500.00, 187500.00, 187500.00, 10678.97, 31970.30, 0.00, 0.00, 0.00
235, 21524.75, 20147.68, -150166.22, -187500.02, -187500.02, -96259.41, -42216.70, 82611.28, 71451.55, 187500.00, 48763.57, 187500.00, 187500.00, 187500.00, 10678.97, 31970.30, 0.00, 0.00, 0.00
236, 21524.75, 20147.68, -150166.22, -187500.02, -187500.02, -96259.41, -42216.70, 82611.28, 71608.10, 187500.00, 48202.81, 187500.00, 187500.00, 187500.00, 10343.14, 31861.27, 0.00, 0.00, 0.00
237, 21197.46, 19760.84, -150513.02, -187500.02, -187500.02, -96184.11, -42168.22, 82542.51, 71608.10, 187500.00, 48202.81, 187500.00, 187500.00, 187500.00, 10343.14, 31861.27, 0.00, 0.00, 0.00
238, 21197.46, 19760.84, -150513.02, -187500.02, -187500.02, -96184.11, -42168.22, 82542.51, 71823.73, 187500.00, 47874.02, 187500.00, 187500.00, 187500.00, 10091.34, 31960.71, 0.00, 0.00, 0.00
239, 20997.59, 19585.51, -150769.59, -187500.02, -187500.02, -96085.32, -42113.37, 82492.46, 71823.73, 187500.00, 47874.02, 187500.00, 187500.00, 187500.00, 10091.34, 31960.71, 0.00, 0.00, 0.00
240, 20997.59, 19585.51, -150769.59, -187500.02, -187500.02, -96085.32, -42113.37, 82492.46, 71932.80, 187500.00, 47477.36, 187500.00, 187500.00, 187500.00, 9685.48, 31881.57, 0.76, -0.55, -0.10
241, 20838.71, 19541.68, -151062.11, -187500.02, -187500.02, -96064.60, -42176.20, 82337.16, 71932.80, 187500.00, 47477.36, 187500.00, 187500.00, 187500.00, 9685.48, 31881.57, 0.00, 0.00, 0.00
242, 20838.71, 19541.68, -151062.11, -187500.02, -187500.02, -96064.60, -42176.20, 82337.16, 71985.47, 187500.00, 47042.46, 187500.00, 187500.00, 187500.00, 9362.43, 31785.50, 0.00, 0.00, 0.00
243, 20737.41, 19468.62, -151335.36, -187500.02, -187500.02, -96033.51, -42226.40, 82210.95, 71985.47, 187500.00, 47042.46, 187500.00, 187500.00, 187500.00, 9362.43, 31785.50, 0.00, 0.00, 0.00
244, 20737.41, 19468.62, -151335.36, -187500.02, -187500.02, -96033.51, -42226.40, 82210.95, 71985.00, 187500.00, 46555.78, 187500.00, 187500.00, 187500.00, 8996.11, 31605.28, 0.00, 0.00, 0.00
245, 20587.83, 19482.81, -151738.92, -187500.02, -187500.02, -96084.80, -42373.83, 81989.70, 71985.00, 187500.00, 46555.78, 187500.00, 187500.00, 187500.00, 8996.11, 31605.28, 0.00, 0.00, 0.00
246, 20587.83, 19482.81, -151738.92, -187500.02, -187500.02, -96084.80, -42373.83, 81989.70, 71898.63, 187500.00, 46051.10, 187500.00, 187500.00, 187500.00, 8592.48, 31381.18, 0.00, 0.00, 0.00
247, 20450.10, 19416.74, -152126.28, -187500.02, -187500.02, -96111.16, -42491.38, 81818.36, 71898.63, 187500.00, 46051.10, 187500.00, 187500.00, 187500.00, 8592.48, 31381.18, 0.00, 0.00, 0.00
248, 20450.10, 19416.74, -152126.28, -187500.02, -187500.02, -96111.16, -42491.38, 81818.36, 71723.17, 187500.00, 45536.85, 187500.00, 187500.00, 187500.00, 8120.48, 31171.50, 0.00, 0.00, 0.00
249, 20391.79, 19525.10, -152648.31, -187500.02, -187500.02, -96263.23, -42747.06, 81554.23, 71723.17, 187500.00, 45536.85, 187500.00, 187500.00, 187500.00, 8120.48, 31171.50, 0.00, 0.00, 0.00
250, 20391.79, 19525.10, -152648.31, -187500.02, -187500.02, -96263.23, -42747.06, 81554.23, 71504.28, 187500.00, 45052.75, 187500.00, 187500.00, 187500.00, 7557.86, 30917.67, 0.80, -0.57, -0.10
251, 20329.69, 19525.88, -153169.50, -187500.02, -187500.02, -96411.36, -42960.99, 81356.73, 71504.28, 187500.00, 45052.75, 187500.00, 187500.00, 187500.00, 7557.86, 30917.67, 0.00, 0.00, 0.00
252, 20329.69, 19525.88, -153169.50, -187500.02, -187500.02, -96411.36, -42960.99, 81356.73, 71282.05, 187500.00, 44682.54, 187500.00, 187500.00, 187500.00, 7004.46, 30703.49, 0.00, 0.00, 0.00
253, 20258.12, 19636.92, -153803.84, -187500.02, -187500.02, -96610.92, -43226.21, 81125.20, 71282.05, 187500.00, 44682.54, 187500.00, 187500.00, 187500.00, 7004.46, 30703.49, 0.00, 0.00, 0.00
254, 20258.12, 19636.92, -153803.84, -187500.02, -187500.02, -96610.92, -43226.21, 81125.20, 71009.23, 187500.00, 44405.20, 187500.00, 187500.00, 187500.00, 6442.98, 30586.86, 0.00, 0.00, 0.00
255, 20229.00, 19626.73, -154435.06, -187500.02, -187500.02, -96805.13, -43457.64, 80942.26, 71009.23, 187500.00, 44405.20, 187500.00, 187500.00, 187500.00, 6442.98, 30586.86, 0.00, 0.00, 0.00
0, 20229.00, 19626.73, -154435.06, -187500.02, -187500.02, -96805.13, -43457.64, 80942.26, 70690.38, 187500.00, 44420.40, 187500.00, 187500.00, 187500.00, 5923.26, 30758.46, 0.00, 0.00, 0.00
1, 20157.74, 19640.46, -155170.56, -187500.02, -187500.02, -97098.50, -43775.42, 80685.41, 70690.38, 187500.00, 44420.40, 187500.00, 187500.00, 187500.00, 5923.26, 30758.46, 0.00, 0.00, 0.00
2, 20157.74, 19640.46, -155170.56, -187500.02, -187500.02, -97098.50, -43775.42, 80685.41, 70347.62, 187500.00, 44627.34, 187500.00, 187500.00, 187500.00, 5553.45, 31136.49, 0.00, 0.00, 0.00
3, 19976.58, 19374.92, -155857.61, -187500.02, -187500.02, -97368.17, -44062.98, 80411.29, 70347.62, 187500.00, 44627.34, 187500.00, 187500.00, 187500.00, 5553.45, 31136.49, 0.00, 0.00, 0.00
4, 19976.58, 19374.92, -155857.61, -187500.02, -187500.02, -97368.17, -44062.98, 80411.29, 70040.64, 187500.00, 45272.07, 187500.00, 187500.00, 187500.00, 5743.15, 32195.63, 0.82, -0.59, -0.09
5, 19783.26, 19123.68, -156573.20, -187500.02, -187500.02, -97667.27, -44382.05, 80073.58, 70040.64, 187500.00, 45272.07, 187500.00, 187500.00, 187500.00, 5743.15, 32195.63, 0.00, 0.00, 0.00
6, 19783.26, 19123.68, -156573.20, -187500.02, -187500.02, -97667.27, -44382.05, 80073.58, 69694.23, 187500.00, 46317.80, 187500.00, 187500.00, 187500.00, 6647.07, 33920.38, 0.00, 0.00, 0.00
7, 19583.39, 18837.42, -157228.00, -187500.02, -187500.02, -97934.19, -44661.62, 79752.16, 69694.23, 187500.00, 46317.80, 187500.00, 187500.00, 187500.00, 6647.07, 33920.38, 0.00, 0.00, 0.00
8, 19583.39, 18837.42, -157228.00, -187500.02, -187500.02, -97934.19, -44661.62, 79752.16, 69335.42, 187500.00, 47708.90, 187500.00, 187500.00, 187500.00, 7846.96, 35976.74, 0.00, 0.00, 0.00
9, 19356.43, 18371.50, -157839.92, -187500.02, -187500.02, -98139.71, -44888.34, 79435.46, 69335.42, 187500.00, 47708.90, 187500.00, 187500.00, 187500.00, 7846.96, 35976.74, 0.00, 0.00, 0.00
10, 19356.43, 18371.50, -157839.92, -187500.02, -187500.02, -98139.71, -44888.34, 79435.46, 68494.75, 187500.00, 48224.20, 187500.00, 187500.00, 187500.00, 8693.11, 37740.50, 0.00, 0.00, 0.00
11, 19293.49, 18140.36, -158482.92, -187500.02, -187500.02, -98392.11, -45155.44, 79119.88, 68494.75, 187500.00, 48224.20, 187500.00, 187500.00, 187500.00, 8693.11, 37740.50, 0.00, 0.00, 0.00
12, 19293.49, 18140.36, -158482.92, -187500.02, -187500.02, -98392.11, -45155.44, 79119.88, 67409.08, 187500.00, 48223.82, 187500.00, 187500.00, 187500.00, 9226.55, 38853.28, 0.00, 0.00, 0.00
13, 19185.31, 17894.49, -159075.59, -187500.02, -187500.02, -98634.00, -45396.59, 78841.57, 67409.08, 187500.00, 48223.82, 187500.00, 187500.00, 187500.00, 9226.55, 38853.28, 0.00, 0.00, 0.00
14, 19185.31, 17894.49, -159075.59, -187500.02, -187500.02, -98634.00, -45396.59, 78841.57, 66366.73, 187500.00, 47656.42, 187500.00, 187500.00, 187500.00, 9263.52, 39192.78, 0.81, -0.58, -0.10
15, 19088.10, 17644.56, -159624.84, -187500.02, -187500.02, -98856.17, -45607.64, 78604.78, 66366.73, 187500.00, 47656.42, 187500.00, 187500.00, 187500.00, 9263.52, 39192.78, 0.00, 0.00, 0.00
16, 19088.10, 17644.56, -159624.84, -187500.02, -187500.02, -98856.17, -45607.64, 78604.78, 65283.32, 187500.00, 46820.71, 187500.00, 187500.00, 187500.00, 9023.15, 39285.58, 0.00, 0.00, 0.00
17, 19028.35, 17459.24, -160076.03, -187500.02, -187500.02, -99039.26, -45787.82, 78410.74, 65283.32, 187500.00, 46820.71, 187500.00, 187500.00, 187500.00, 9023.15, 39285.58, 0.00, 0.00, 0.00
18, 19028.35, 17459.24, -160076.03, -187500.02, -187500.02, -99039.26, -45787.82, 78410.74, 64310.77, 187500.00, 45596.95, 187500.00, 187500.00, 187500.00, 8394.82, 39037.39, 0.00, 0.00, 0.00
19, 19108.48, 17437.00, -160513.59, -187500.02, -187500.02, -99196.23, -45916.70, 78328.18, 64310.77, 187500.00, 45596.95, 187500.00, 187500.00, 187500.00, 8394.82, 39037.39, 0.00, 0.00, 0.00
20, 19108.48, 17437.00, -160513.59, -187500.02, -187500.02, -99196.23, -45916.70, 78328.18, 63687.89, 187500.00, 44451.27, 187500.00, 187500.00, 187500.00, 7533.74, 38564.65, 0.00, 0.00, 0.00
21, 19248.27, 17538.85, -160808.19, -187500.02, -187500.02, -99241.38, -45920.59, 78388.59, 63687.89, 187500.00, 44451.27, 187500.00, 187500.00, 187500.00, 7533.74, 38564.65, 0.00, 0.00, 0.00
22, 19248.27, 17538.85, -160808.19, -187500.02, -187500.02, -99241.38, -45920.59, 78388.59, 63591.49, 187500.00, 43385.38, 187500.00, 187500.00, 187500.00, 6477.80, 37960.21, 0.00, 0.00, 0.00
23, 19520.43, 17905.78, -161105.63, -187500.02, -187500.02, -99277.48, -45910.26, 78537.01, 63591.49, 187500.00, 43385.38, 187500.00, 187500.00, 187500.00, 6477.80, 37960.21, 0.00, 0.00, 0.00
24, 19520.43, 17905.78, -161105.63, -187500.02, -187500.02, -99277.48, -45910.26, 78537.01, 63954.95, 187500.00, 42386.80, 187500.00, 187500.00, 187500.00, 5541.24, 37390.15, 0.79, -0.57, -0.11
25, 19833.60, 18433.97, -161336.30, -187500.02, -187500.02, -99201.11, -45764.37, 78867.32, 63954.95, 187500.00, 42386.80, 187500.00, 187500.00, 187500.00, 5541.24, 37390.15, 0.00, 0.00, 0.00
26, 19833.60, 18433.97, -161336.30, -187500.02, -187500.02, -99201.11, -45764.37, 78867.32, 64429.64, 187500.00, 41565.55, 187500.00, 187500.00, 187500.00, 4740.65, 36863.93, 0.00, 0.00, 0.00
27, 20230.59, 19128.40, -161673.63, -187500.02, -187500.02, -99164.88, -45669.89, 79174.84, 64429.64, 187500.00, 41565.55, 187500.00, 187500.00, 187500.00, 4740.65, 36863.93, 0.00, 0.00, 0.00
28, 20230.59, 19128.40, -161673.63, -187500.02, -187500.02, -99164.88, -45669.89, 79174.84, 65113.51, 187500.00, 41064.91, 187500.00, 187500.00, 187500.00, 4160.78, 36485.11, 0.00, 0.00, 0.00
29, 20682.47, 19672.87, -161957.19, -187500.02, -187500.02, -99038.45, -45503.23, 79516.77, 65113.51, 187500.00, 41064.91, 187500.00, 187500.00, 187500.00, 4160.78, 36485.11, 0.00, 0.00, 0.00
30, 20682.47, 19672.87, -161957.19, -187500.02, -187500.02, -99038.45, -45503.23, 79516.77, 65880.42, 187500.00, 40731.29, 187500.00, 187500.00, 187500.00, 3576.06, 36063.60, 0.00, 0.00, 0.00
31, 20971.28, 20045.47, -162282.38, -187500.02, -187500.02, -98948.04, -45397.04, 79773.95, 65880.42, 187500.00, 40731.29, 187500.00, 187500.00, 187500.00, 3576.06, 36063.60, 0.00, 0.00, 0.00
32, 20971.28, 20045.47, -162282.38, -187500.02, -187500.02, -98948.04, -45397.04, 79773.95, 66591.92, 187500.00, 40606.48, 187500.00, 187500.00, 187500.00, 3162.06, 35746.99, 0.00, 0.00, 0.00
33, 21273.65, 20310.56, -162525.30, -187500.02, -187500.02, -98816.01, -45238.07, 80055.81, 66591.92, 187500.00, 40606.48, 187500.00, 187500.00, 187500.00, 3162.06, 35746.99, 0.00, 0.00, 0.00
34, 21273.65, 20310.56, -162525.30, -187500.02, -187500.02, -98816.01, -45238.07, 80055.81, 67175.41, 187500.00, 40416.31, 187500.00, 187500.00, 187500.00, 2817.55, 35514.62, 0.80, -0.57, -0.11
35, 21507.23, 20523.08, -162838.75, -187500.02, -187500.02, -98742.74, -45158.37, 80238.85, 67175.41, 187500.00, 40416.31, 187500.00, 187500.00, 187500.00, 2817.55, 35514.62, 0.00, 0.00, 0.00
36, 21507.23, 20523.08, -162838.75, -187500.02, -187500.02, -98742.74, -45158.37, 80238.85, 67698.91, 187500.00, 40247.80, 187500.00, 187500.00, 187500.00, 2615.33, 35415.09, 0.00, 0.00, 0.00
37, 21578.82, 20486.60, -163049.72, -187500.02, -187500.02, -98589.27, -44972.31, 80469.38, 67698.91, 187500.00, 40247.80, 187500.00, 187500.00, 187500.00, 2615.33, 35415.09, 0.00, 0.00, 0.00
38, 21578.82, 20486.60, -163049.72, -187500.02, -187500.02, -98589.27, -44972.31, 80469.38, 68112.36, 187500.00, 40096.43, 187500.00, 187500.00, 187500.00, 2387.93, 35274.74, 0.00, 0.00, 0.00
39, 21579.51, 20522.41, -163390.75, -187500.02, -187500.02, -98506.57, -44864.02, 80629.40, 68112.36, 187500.00, 40096.43, 187500.00, 187500.00, 187500.00, 2387.93, 35274.74, 0.00, 0.00, 0.00
40, 21579.51, 20522.41, -163390.75, -187500.02, -187500.02, -98506.57, -44864.02, 80629.40, 68429.44, 187500.00, 39902.00, 187500.00, 187500.00, 187500.00, 2040.54, 34968.41, 0.00, 0.00, 0.00
41, 21541.61, 20471.49, -163727.64, -187500.02, -187500.02, -98426.59, -44736.81, 80794.13, 68429.44, 187500.00, 39902.00, 187500.00, 187500.00, 187500.00, 2040.54, 34968.41, 0.00, 0.00, 0.00
42, 21541.61, 20471.49, -163727.64, -187500.02, -187500.02, -98426.59, -44736.81, 80794.13, 68692.77, 187500.00, 39727.36, 187500.00, 187500.00, 187500.00, 1695.09, 34570.77, 0.00, 0.00, 0.00
43, 21478.06, 20432.87, -164146.94, -187500.02, -187500.02, -98408.91, -44685.50, 80878.89, 68692.77, 187500.00, 39727.36, 187500.00, 187500.00, 187500.00, 1695.09, 34570.77, 0.00, 0.00, 0.00
44, 21478.06, 20432.87, -164146.94, -187500.02, -187500.02, -98408.91, -44685.50, 80878.89, 68861.32, 187500.00, 39475.84, 187500.00, 187500.00, 187500.00, 1241.30, 34103.17, 0.80, -0.57, -0.10
45, 21411.36, 20357.86, -164520.48, -187500.02, -187500.02, -98376.51, -44631.13, 80952.83, 68861.32, 187500.00, 39475.84, 187500.00, 187500.00, 187500.00, 1241.30, 34103.17, 0.00, 0.00, 0.00
46, 21411.36, 20357.86, -164520.48, -187500.02, -187500.02, -98376.51, -44631.13, 80952.83, 69018.85, 187500.00, 39235.76, 187500.00, 187500.00, 187500.00, 838.37, 33681.38, 0.00, 0.00, 0.00
47, 21285.61, 20245.27, -164980.20, -187500.02, -187500.02, -98415.60, -44671.30, 80917.38, 69018.85, 187500.00, 39235.76, 187500.00, 187500.00, 187500.00, 838.37, 33681.38, 0.00, 0.00, 0.00
48, 21285.61, 20245.27, -164980.20, -187500.02, -187500.02, -98415.60, -44671.30, 80917.38, 69080.16, 187500.00, 38875.32, 187500.00, 187500.00, 187500.00, 332.93, 33214.16, 0.00, 0.00, 0.00
49, 21128.81, 20046.25, -165430.28, -187500.02, -187500.02, -98448.32, -44705.70, 80864.49, 69080.16, 187500.00, 38875.32, 187500.00, 187500.00, 187500.00, 332.93, 33214.16, 0.00, 0.00, 0.00
50, 21128.81, 20046.25, -165430.28, -187500.02, -187500.02, -98448.32, -44705.70, 80864.49, 69113.73, 187500.00, 38538.32, 187500.00, 187500.00, 187500.00, -97.68, 32838.96, 0.00, 0.00, 0.00
51, 20942.27, 19891.82, -165954.33, -187500.02, -187500.02, -98558.85, -44831.56, 80742.88, 69113.73, 187500.00, 38538.32, 187500.00, 187500.00, 187500.00, -97.68, 32838.96, 0.00, 0.00, 0.00
52, 20942.27, 19891.82, -165954.33, -187500.02, -187500.02, -98558.85, -44831.56, 80742.88, 69055.17, 187500.00, 38067.39, 187500.00, 187500.00, 187500.00, -673.19, 32423.75, 0.00, 0.00, 0.00
53, 20840.30, 19855.01, -166451.95, -187500.02, -187500.02, -98652.44, -44934.94, 80646.63, 69055.17, 187500.00, 38067.39, 187500.00, 187500.00, 187500.00, -673.19, 32423.75, 0.00, 0.00, 0.00
54, 20840.30, 19855.01, -166451.95, -187500.02, -187500.02, -98652.44, -44934.94, 80646.63, 69025.45, 187500.00, 37694.54, 187500.00, 187500.00, 187500.00, -1104.24, 32085.19, 0.79, -0.56, -0.10
55, 20697.54, 19793.79, -166985.61, -187500.02, -187500.02, -98770.73, -45069.65, 80516.81, 69025.45, 187500.00, 37694.54, 187500.00, 187500.00, 187500.00, -1104.24, 32085.19, 0.00, 0.00, 0.00
56, 20697.54, 19793.79, -166985.61, -187500.02, -187500.02, -98770.73, -45069.65, 80516.81, 68943.59, 187500.00, 37253.65, 187500.00, 187500.00, 187500.00, -1620.93, 31696.11, 0.00, 0.00, 0.00
57, 20595.32, 19701.23, -167495.39, -187500.02, -187500.02, -98872.23, -45177.16, 80430.38, 68943.59, 187500.00, 37253.65, 187500.00, 187500.00, 187500.00, -1620.93, 31696.11, 0.00, 0.00, 0.00
58, 20595.32, 19701.23, -167495.39, -187500.02, -187500.02, -98872.23, -45177.16, 80430.38, 68897.55, 187500.00, 36845.29, 187500.00, 187500.00, 187500.00, -2052.81, 31431.96, 0.00, 0.00, 0.00
59, 20571.85, 19782.08, -168080.69, -187500.02, -187500.02, -99034.56, -45341.54, 80340.03, 68897.55, 187500.00, 36845.29, 187500.00, 187500.00, 187500.00, -2052.81, 31431.96, 0.00, 0.00, 0.00
60, 20571.85, 19782.08, -168080.69, -187500.02, -187500.02, -99034.56, -45341.54, 80340.03, 68833.65, 187500.00, 36362.73, 187500.00, 187500.00, 187500.00, -2564.01, 31122.79, 0.00, 0.00, 0.00
61, 20558.15, 19760.80, -168610.16, -187500.02, -187500.02, -99138.95, -45446.66, 80277.80, 68833.65, 187500.00, 36362.73, 187500.00, 187500.00, 187500.00, -2564.01, 31122.79, 0.00, 0.00, 0.00
62, 20558.15, 19760.80, -168610.16, -187500.02, -187500.02, -99138.95, -45446.66, 80277.80, 68844.13, 187500.00, 36000.39, 187500.00, 187500.00, 187500.00, -2937.78, 30956.83, 0.00, 0.00, 0.00
63, 20540.87, 19774.63, -169120.20, -187500.02, -187500.02, -99238.32, -45546.35, 80224.92, 68844.13, 187500.00, 36000.39, 187500.00, 187500.00, 187500.00, -2937.78, 30956.83, 0.79, -0.57, -0.10
64, 20540.87, 19774.63, -169120.20, -187500.02, -187500.02, -99238.32, -45546.35, 80224.92, 68829.53, 187500.00, 35580.18, 187500.00, 187500.00, 187500.00, -3393.35, 30744.87, 0.00, 0.00, 0.00
65, 20607.86, 19876.38, -169634.06, -187500.02, -187500.02, -99339.04, -45636.61, 80222.53, 68829.53, 187500.00, 35580.18, 187500.00, 187500.00, 187500.00, -3393.35, 30744.87, 0.00, 0.00, 0.00
66, 20607.86, 19876.38, -169634.06, -187500.02, -187500.02, -99339.04, -45636.61, 80222.53, 68903.56, 187500.00, 35250.82, 187500.00, 187500.00, 187500.00, -3733.08, 30661.88, 0.00, 0.00, 0.00
67, 20664.34, 19897.72, -170091.50, -187500.02, -187500.02, -99382.13, -45664.79, 80259.13, 68903.56, 187500.00, 35250.82, 187500.00, 187500.00, 187500.00, -3733.08, 30661.88, 0.00, 0.00, 0.00
68, 20664.34, 19897.72, -170091.50, -187500.02, -187500.02, -99382.13, -45664.79, 80259.13, 68960.31, 187500.00, 34916.80, 187500.00, 187500.00, 187500.00, -4098.68, 30531.90, 0.00, 0.00, 0.00
69, 20686.92, 19801.12, -170515.66, -187500.02, -187500.02, -99385.77, -45660.45, 80287.06, 68960.31, 187500.00, 34916.80, 187500.00, 187500.00, 187500.00, -4098.68, 30531.90, 0.00, 0.00, 0.00
70, 20686.92, 19801.12, -170515.66, -187500.02, -187500.02, -99385.77, -45660.45, 80287.06, 69093.93, 187500.00, 34697.48, 187500.00, 187500.00, 187500.00, -4321.67, 30514.27, 0.00, 0.00, 0.00
71, 20717.81, 19846.45, -170904.27, -187500.02, -187500.02, -99387.77, -45649.95, 80359.05, 69093.93, 187500.00, 34697.48, 187500.00, 187500.00, 187500.00, -4321.67, 30514.27, 0.00, 0.00, 0.00
72, 20717.81, 19846.45, -170904.27, -187500.02, -187500.02, -99387.77, -45649.95, 80359.05, 69196.98, 187500.00, 34368.29, 187500.00, 187500.00, 187500.00, -4672.59, 30420.77, 0.00, 0.00, 0.00
73, 20831.56, 19991.13, -171337.38, -187500.02, -187500.02, -99426.37, -45676.28, 80412.72, 69196.98, 187500.00, 34368.29, 187500.00, 187500.00, 187500.00, -4672.59, 30420.77, 0.79, -0.58, -0.10
74, 20831.56, 19991.13, -171337.38, -187500.02, -187500.02, -99426.37, -45676.28, 80412.72, 69352.12, 187500.00, 34134.89, 187500.00, 187500.00, 187500.00, -4910.57, 30398.60, 0.00, 0.00, 0.00
75, 20877.89, 19945.78, -171689.78, -187500.02, -187500.02, -99396.38, -45636.58, 80494.82, 69352.12, 187500.00, 34134.89, 187500.00, 187500.00, 187500.00, -4910.57, 30398.60, 0.00, 0.00, 0.00
76, 20877.89, 19945.78, -171689.78, -187500.02, -187500.02, -99396.38, -45636.58, 80494.82, 69481.09, 187500.00, 33881.62, 187500.00, 187500.00, 187500.00, -5194.25, 30322.60, 0.00, 0.00, 0.00
77, 20930.87, 20013.75, -172070.47, -187500.02, -187500.02, -99390.29, -45632.65, 80549.34, 69481.09, 187500.00, 33881.62, 187500.00, 187500.00, 187500.00, -5194.25, 30322.60, 0.00, 0.00, 0.00
78, 20930.87, 20013.75, -172070.47, -187500.02, -187500.02, -99390.29, -45632.65, 80549.34, 69647.19, 187500.00, 33703.52, 187500.00, 187500.00, 187500.00, -5379.75, 30324.50, 0.00, 0.00, 0.00
79, 20942.27, 19917.26, -172386.55, -187500.02, -187500.02, -99338.15, -45577.62, 80636.35, 69647.19, 187500.00, 33703.52, 187500.00, 187500.00, 187500.00, -5379.75, 30324.50, 0.00, 0.00, 0.00
80, 20942.27, 19917.26, -172386.55, -187500.02, -187500.02, -99338.15, -45577.62, 80636.35, 69795.29, 187500.00, 33491.92, 187500.00, 187500.00, 187500.00, -5618.45, 30278.07, 0.00, 0.00, 0.00
81, 21025.28, 20045.27, -172785.77, -187500.02, -187500.02, -99360.70, -45612.11, 80698.35, 69795.29, 187500.00, 33491.92, 187500.00, 187500.00, 187500.00, -5618.45, 30278.07, 0.00, 0.00, 0.00
82, 21025.28, 20045.27, -172785.77, -187500.02, -187500.02, -99360.70, -45612.11, 80698.35, 69964.84, 187500.00, 33306.49, 187500.00, 187500.00, 187500.00, -5840.18, 30258.65, 0.00, 0.00, 0.00
83, 21077.85, 20053.25, -173074.22, -187500.02, -187500.02, -99299.30, -45544.94, 80794.27, 69964.84, 187500.00, 33306.49, 187500.00, 187500.00, 187500.00, -5840.18, 30258.65, 0.79, -0.57, -0.11
84, 21077.85, 20053.25, -173074.22, -187500.02, -187500.02, -99299.30, -45544.94, 80794.27, 70135.81, 187500.00, 33148.46, 187500.00, 187500.00, 187500.00, -6061.97, 30231.43, 0.00, 0.00, 0.00
85, 21092.00, 20121.29, -173451.47, -187500.02, -187500.02, -99298.54, -45546.37, 80861.03, 70135.81, 187500.00, 33148.46, 187500.00, 187500.00, 187500.00, -6061.97, 30231.43, 0.00, 0.00, 0.00
86, 21092.00, 20121.29, -173451.47, -187500.02, -187500.02, -99298.54, -45546.37, 80861.03, 70311.21, 187500.00, 33027.16, 187500.00, 187500.00, 187500.00, -6259.05, 30218.33, 0.00, 0.00, 0.00
87, 21109.52, 20079.20, -173740.30, -187500.02, -187500.02, -99230.19, -45472.39, 80955.27, 70311.21, 187500.00, 33027.16, 187500.00, 187500.00, 187500.00, -6259.05, 30218.33, 0.00, 0.00, 0.00
88, 21109.52, 20079.20, -173740.30, -187500.02, -187500.02, -99230.19, -45472.39, 80955.27, 70488.23, 187500.00, 32939.07, 187500.00, 187500.00, 187500.00, -6447.07, 30190.90, 0.00, 0.00, 0.00
89, 21058.18, 20135.10, -174130.88, -187500.02, -187500.02, -99223.41, -45466.22, 81000.39, 70488.23, 187500.00, 32939.07, 187500.00, 187500.00, 187500.00, -6447.07, 30190.90, 0.00, 0.00, 0.00
90, 21058.18, 20135.10, -174130.88, -187500.02, -187500.02, -99223.41, -45466.22, 81000.39, 70675.63, 187500.00, 32831.47, 187500.00, 187500.00, 187500.00, -6657.65, 30154.49, 0.00, 0.00, 0.00
91, 21063.95, 20102.46, -174467.94, -187500.02, -187500.02, -99174.64, -45406.09, 81088.59, 70675.63, 187500.00, 32831.47, 187500.00, 187500.00, 187500.00, -6657.65, 30154.49, 0.00, 0.00, 0.00
92, 21063.95, 20102.46, -174467.94, -187500.02, -187500.02, -99174.64, -45406.09, 81088.59, 70863.14, 187500.00, 32747.99, 187500.00, 187500.00, 187500.00, -6846.18, 30116.38, 0.00, 0.00, 0.00
93, 21054.87, 20159.87, -174898.66, -187500.02, -187500.02, -99207.59, -45438.34, 81100.46, 70863.14, 187500.00, 32747.99, 187500.00, 187500.00, 187500.00, -6846.18, 30116.38, 0.79, -0.57, -0.11
94, 21054.87, 20159.87, -174898.66, -187500.02, -187500.02, -99207.59, -45438.34, 81100.46, 71009.43, 187500.00, 32613.50, 187500.00, 187500.00, 187500.00, -7092.79, 30035.04, 0.00, 0.00, 0.00
95, 21006.55, 20038.43, -175245.81, -187500.02, -187500.02, -99178.40, -45396.13, 81147.52, 71009.43, 187500.00, 32613.50, 187500.00, 187500.00, 187500.00, -7092.79, 30035.04, 0.00, 0.00, 0.00
96, 21006.55, 20038.43, -175245.81, -187500.02, -187500.02, -99178.40, -45396.13, 81147.52, 71171.88, 187500.00, 32529.21, 187500.00, 187500.00, 187500.00, -7259.69, 30012.94, 0.00, 0.00, 0.00
97, 20949.02, 20064.49, -175647.75, -187500.02, -187500.02, -99204.84, -45420.66, 81153.95, 71171.88, 187500.00, 32529.21, 187500.00, 187500.00, 187500.00, -7259.69, 30012.94, 0.00, 0.00, 0.00
98, 20949.02, 20064.49, -175647.75, -187500.02, -187500.02, -99204.84, -45420.66, 81153.95, 71307.59, 187500.00, 32397.91, 187500.00, 187500.00, 187500.00, -7488.75, 29933.46, 0.00, 0.00, 0.00
99, 20925.59, 19986.71, -176002.34, -187500.02, -187500.02, -99192.30, -45394.74, 81203.84, 71307.59, 187500.00, 32397.91, 187500.00, 187500.00, 187500.00, -7488.75, 29933.46, 0.00, 0.00, 0.00
100, 20925.59, 19986.71, -176002.34, -187500.02, -187500.02, -99192.30, -45394.74, 81203.84, 71479.71, 187500.00, 32319.15, 187500.00, 187500.00, 187500.00, -7642.80, 29899.77, 0.00, 0.00, 0.00
101, 20819.11, 19855.77, -176374.45, -187500.02, -187500.02, -99188.37, -45393.75, 81187.70, 71479.71, 187500.00, 32319.15, 187500.00, 187500.00, 187500.00, -7642.80, 29899.77, 0.00, 0.00, 0.00
102, 20819.11, 19855.77, -176374.45, -187500.02, -187500.02, -99188.37, -45393.75, 81187.70, 71569.70, 187500.00, 32157.90, 187500.00, 187500.00, 187500.00, -7880.04, 29782.63, 0.00, 0.00, 0.00
103, 20777.15, 19751.99, -176732.22, -187500.02, -187500.02, -99179.49, -45374.84, 81212.09, 71569.70, 187500.00, 32157.90, 187500.00, 187500.00, 187500.00, -7880.04, 29782.63, 0.79, -0.57, -0.10
