%OpenBCI Raw EEG Data
%
%Sample Rate = 250.0 Hz
%First Column = SampleIndex
%Other Columns = EEG data in microvolts followed by Accel Data (in G) interleaved with Aux Data
0, 0.00, 0.00, 0.00, 0.00, 0.00, 0.00, 0.00, 0.00, -23914.33, -27364.39, -13355.86, -14566.70, -37158.59, -34275.62, -15900.00, -28600.49, 0.45, 0.02, 0.14
1, -59050.96, -50509.69, -72901.87, -137747.09, -40504.58, -76012.36, -108479.38, -51077.60, -23914.33, -27364.39, -13355.86, -14566.70, -37158.59, -34275.62, -15900.00, -28600.49, 0.00, 0.00, 0.00
2, -59050.96, -50509.69, -72901.87, -137747.09, -40504.58, -76012.36, -108479.38, -51077.60, -48024.11, -54715.62, -26697.62, -29065.40, -74377.26, -68625.13, -31748.57, -57136.38, 0.00, 0.00, 0.00
3, -59205.05, -50668.25, -72866.44, -137876.48, -40607.04, -76028.65, -108629.16, -50511.05, -48024.11, -54715.62, -26697.62, -29065.40, -74377.26, -68625.13, -31748.57, -57136.38, 0.00, 0.00, 0.00
4, -59205.05, -50668.25, -72866.44, -137876.48, -40607.04, -76028.65, -108629.16, -50511.05, -48026.52, -54796.28, -26842.75, -29255.73, -74477.62, -68746.21, -31846.12, -57284.97, 0.00, 0.00, 0.00
5, -59242.61, -50705.91, -72960.98, -138105.70, -40645.28, -76201.66, -108666.27, -49909.79, -48026.52, -54796.28, -26842.75, -29255.73, -74477.62, -68746.21, -31846.12, -57284.97, 0.00, 0.00, 0.00
6, -59242.61, -50705.91, -72960.98, -138105.70, -40645.28, -76201.66, -108666.27, -49909.79, -48220.87, -54824.07, -26868.74, -29262.54, -74565.22, -68816.77, -31857.63, -57345.97, 0.00, 0.00, 0.00
7, -59394.35, -50856.23, -72891.00, -138220.44, -40757.91, -76236.77, -108820.60, -49378.42, -48220.87, -54824.07, -26868.74, -29262.54, -74565.22, -68816.77, -31857.63, -57345.97, 0.87, 0.03, 0.42
8, -59394.35, -50856.23, -72891.00, -138220.44, -40757.91, -76236.77, -108820.60, -49378.42, -48171.92, -54887.25, -26915.43, -29294.98, -74660.34, -68915.92, -31943.82, -57473.31, 0.00, 0.00, 0.00
9, -59248.86, -50711.41, -73047.29, -138451.39, -40733.57, -76366.90, -108690.45, -49013.86, -48171.92, -54887.25, -26915.43, -29294.98, -74660.34, -68915.92, -31943.82, -57473.31, 0.00, 0.00, 0.00
10, -59248.86, -50711.41, -73047.29, -138451.39, -40733.57, -76366.90, -108690.45, -49013.86, -48002.65, -54880.95, -27008.75, -29410.27, -74559.67, -68804.59, -31955.82, -57460.95, 0.00, 0.00, 0.00
11, -59064.77, -50534.32, -73146.41, -138699.70, -40562.47, -76223.52, -108513.71, -48783.66, -48002.65, -54880.95, -27008.75, -29410.27, -74559.67, -68804.59, -31955.82, -57460.95, 0.00, 0.00, 0.00
12, -59064.77, -50534.32, -73146.41, -138699.70, -40562.47, -76223.52, -108513.71, -48783.66, -47882.22, -54849.82, -27092.24, -29521.20, -74440.34, -68681.16, -31972.04, -57718.68, 0.00, 0.00, 0.00
13, -59016.29, -50481.97, -73350.22, -138957.61, -40481.78, -76181.67, -108464.20, -49069.18, -47882.22, -54849.82, -27092.24, -29521.20, -74440.34, -68681.16, -31972.04, -57718.68, 0.00, 0.00, 0.00
14, -59016.29, -50481.97, -73350.22, -138957.61, -40481.78, -76181.67, -108464.20, -49069.18, -47912.93, -54800.06, -27108.35, -29550.26, -74367.52, -68608.23, -31928.10, -57876.40, 0.00, 0.00, 0.00
15, -59056.97, -50513.87, -73329.21, -139090.52, -40461.68, -75975.79, -108509.24, -49354.89, -47912.93, -54800.06, -27108.35, -29550.26, -74367.52, -68608.23, -31928.10, -57876.40, 0.00, 0.00, 0.00
16, -59056.97, -50513.87, -73329.21, -139090.52, -40461.68, -75975.79, -108509.24, -49354.89, -47825.38, -54745.19, -27051.60, -29482.29, -74329.90, -68598.13, -31874.50, -57924.92, 0.00, 0.00, 0.00
17, -58930.24, -50392.68, -73435.83, -139282.31, -40380.35, -75933.30, -108365.74, -49725.84, -47825.38, -54745.19, -27051.60, -29482.29, -74329.90, -68598.13, -31874.50, -57924.92, 0.88, 0.03, 0.36
18, -58930.24, -50392.68, -73435.83, -139282.31, -40380.35, -75933.30, -108365.74, -49725.84, -47872.23, -54693.04, -26999.65, -29458.28, -74300.41, -68566.68, -31863.28, -58068.69, 0.00, 0.00, 0.00
19, -59084.84, -50530.61, -73353.62, -139361.80, -40420.43, -75807.46, -108508.24, -49878.59, -47872.23, -54693.04, -26999.65, -29458.28, -74300.41, -68566.68, -31863.28, -58068.69, 0.00, 0.00, 0.00
20, -59084.84, -50530.61, -73353.62, -139361.80, -40420.43, -75807.46, -108508.24, -49878.59, -47890.15, -54641.45, -26873.23, -29366.46, -74365.32, -68651.21, -31882.66, -58073.29, 0.00, 0.00, 0.00
21, -58965.22, -50424.39, -73419.78, -139532.53, -40400.17, -75857.75, -108389.77, -49987.13, -47890.15, -54641.45, -26873.23, -29366.46, -74365.32, -68651.21, -31882.66, -58073.29, 0.00, 0.00, 0.00
22, -58965.22, -50424.39, -73419.78, -139532.53, -40400.17, -75857.75, -108389.77, -49987.13, -47865.92, -54612.02, -26825.42, -29376.23, -74328.40, -68596.00, -31900.45, -58187.45, 0.00, 0.00, 0.00
23, -59059.95, -50522.45, -73361.17, -139631.91, -40420.67, -75788.35, -108487.63, -50118.58, -47865.92, -54612.02, -26825.42, -29376.23, -74328.40, -68596.00, -31900.45, -58187.45, 0.00, 0.00, 0.00
24, -59059.95, -50522.45, -73361.17, -139631.91, -40420.67, -75788.35, -108487.63, -50118.58, -47856.58, -54557.39, -26704.01, -29265.96, -74360.66, -68617.17, -31859.91, -58120.81, 0.00, 0.00, 0.00
25, -58901.29, -50359.04, -73405.83, -139785.45, -40391.48, -75826.81, -108340.73, -50298.29, -47856.58, -54557.39, -26704.01, -29265.96, -74360.66, -68617.17, -31859.91, -58120.81, 0.00, 0.00, 0.00
26, -58901.29, -50359.04, -73405.83, -139785.45, -40391.48, -75826.81, -108340.73, -50298.29, -47791.92, -54546.37, -26692.97, -29298.33, -74314.90, -68542.67, -31856.85, -58224.91, 0.00, 0.00, 0.00
27, -58998.97, -50454.73, -73368.75, -139892.09, -40391.77, -75737.16, -108438.55, -50430.79, -47791.92, -54546.37, -26692.97, -29298.33, -74314.90, -68542.67, -31856.85, -58224.91, 0.89, 0.03, 0.35
28, -58998.97, -50454.73, -73368.75, -139892.09, -40391.77, -75737.16, -108438.55, -50430.79, -47829.40, -54502.36, -26591.87, -29208.74, -74354.08, -68577.79, -31809.59, -58124.64, 0.00, 0.00, 0.00
29, -58880.95, -50342.05, -73410.46, -140046.97, -40382.18, -75772.81, -108332.91, -50581.08, -47829.40, -54502.36, -26591.87, -29208.74, -74354.08, -68577.79, -31809.59, -58124.64, 0.00, 0.00, 0.00
30, -58880.95, -50342.05, -73410.46, -140046.97, -40382.18, -75772.81, -108332.91, -50581.08, -47752.24, -54516.30, -26618.42, -29285.03, -74300.13, -68522.47, -31831.90, -58245.13, 0.00, 0.00, 0.00
31, -58969.67, -50429.85, -73411.66, -140182.09, -40380.28, -75723.53, -108410.05, -50691.25, -47752.24, -54516.30, -26618.42, -29285.03, -74300.13, -68522.47, -31831.90, -58245.13, 0.00, 0.00, 0.00
32, -58969.67, -50429.85, -73411.66, -140182.09, -40380.28, -75723.53, -108410.05, -50691.25, -47808.93, -54484.79, -26548.84, -29219.72, -74313.63, -68552.80, -31771.44, -58134.49, 0.00, 0.00, 0.00
33, -58854.62, -50318.89, -73447.67, -140339.11, -40360.97, -75745.37, -108316.88, -50808.02, -47808.93, -54484.79, -26548.84, -29219.72, -74313.63, -68552.80, -31771.44, -58134.49, 0.00, 0.00, 0.00
34, -58854.62, -50318.89, -73447.67, -140339.11, -40360.97, -75745.37, -108316.88, -50808.02, -47693.05, -54514.85, -26623.23, -29325.78, -74249.30, -68484.87, -31768.06, -58240.42, 0.00, 0.00, 0.00
35, -58914.35, -50378.98, -73488.24, -140502.56, -40326.84, -75707.14, -108371.71, -50919.98, -47693.05, -54514.85, -26623.23, -29325.78, -74249.30, -68484.87, -31768.06, -58240.42, 0.00, 0.00, 0.00
36, -58914.35, -50378.98, -73488.24, -140502.56, -40326.84, -75707.14, -108371.71, -50919.98, -47781.41, -54479.58, -26584.16, -29273.45, -74253.56, -68491.46, -31669.89, -58101.08, 0.00, 0.00, 0.00
37, -58837.07, -50306.93, -73516.05, -140667.91, -40339.87, -75717.96, -108290.48, -51030.64, -47781.41, -54479.58, -26584.16, -29273.45, -74253.56, -68491.46, -31669.89, -58101.08, 0.88, 0.03, 0.35
38, -58837.07, -50306.93, -73516.05, -140667.91, -40339.87, -75717.96, -108290.48, -51030.64, -47665.12, -54523.41, -26683.15, -29387.07, -74183.54, -68431.05, -31664.02, -58184.38, 0.00, 0.00, 0.00
39, -58885.42, -50347.66, -73595.48, -140862.67, -40289.87, -75717.16, -108321.38, -51129.10, -47665.12, -54523.41, -26683.15, -29387.07, -74183.54, -68431.05, -31664.02, -58184.38, 0.00, 0.00, 0.00
40, -58885.42, -50347.66, -73595.48, -140862.67, -40289.87, -75717.16, -108321.38, -51129.10, -47782.64, -54494.31, -26657.76, -29340.60, -74192.95, -68456.69, -31582.99, -58042.09, 0.00, 0.00, 0.00
41, -58859.85, -50319.65, -73608.05, -141023.83, -40303.08, -75724.09, -108288.66, -51182.86, -47782.64, -54494.31, -26657.76, -29340.60, -74192.95, -68456.69, -31582.99, -58042.09, 0.00, 0.00, 0.00
42, -58859.85, -50319.65, -73608.05, -141023.83, -40303.08, -75724.09, -108288.66, -51182.86, -47672.78, -54536.13, -26745.74, -29431.23, -74161.01, -68429.17, -31602.33, -58126.40, 0.00, 0.00, 0.00
43, -58897.27, -50346.99, -73699.55, -141223.02, -40274.60, -75748.83, -108307.43, -51192.69, -47672.78, -54536.13, -26745.74, -29431.23, -74161.01, -68429.17, -31602.33, -58126.40, 0.00, 0.00, 0.00
44, -58897.27, -50346.99, -73699.55, -141223.02, -40274.60, -75748.83, -108307.43, -51192.69, -47818.25, -54496.14, -26695.27, -29379.91, -74200.68, -68473.12, -31552.30, -58012.52, 0.00, 0.00, 0.00
45, -58903.28, -50361.77, -73662.95, -141350.48, -40320.22, -75722.99, -108333.96, -51117.77, -47818.25, -54496.14, -26695.27, -29379.91, -74200.68, -68473.12, -31552.30, -58012.52, 0.00, 0.00, 0.00
46, -58903.28, -50361.77, -73662.95, -141350.48, -40320.22, -75722.99, -108333.96, -51117.77, -47686.17, -54520.46, -26734.79, -29457.30, -74193.13, -68477.54, -31603.31, -58088.18, 0.00, 0.00, 0.00
47, -58858.29, -50317.26, -73744.23, -141533.50, -40260.88, -75736.56, -108281.30, -51110.08, -47686.17, -54520.46, -26734.79, -29457.30, -74193.13, -68477.54, -31603.31, -58088.18, 0.95, 0.03, 0.28
48, -58858.29, -50317.26, -73744.23, -141533.50, -40260.88, -75736.56, -108281.30, -51110.08, -47769.52, -54449.96, -26656.87, -29409.69, -74177.03, -68456.23, -31561.49, -58004.36, 0.00, 0.00, 0.00
49, -58830.86, -50285.52, -73665.11, -141629.81, -40258.69, -75643.55, -108275.00, -51091.04, -47769.52, -54449.96, -26656.87, -29409.69, -74177.03, -68456.23, -31561.49, -58004.36, 0.00, 0.00, 0.00
50, -58830.86, -50285.52, -73665.11, -141629.81, -40258.69, -75643.55, -108275.00, -51091.04, -47593.48, -54439.08, -26651.12, -29475.07, -74160.54, -68432.05, -31642.69, -58078.17, 0.00, 0.00, 0.00
51, -58749.77, -50202.22, -73748.33, -141808.73, -40168.77, -75624.42, -108201.51, -51125.39, -47593.48, -54439.08, -26651.12, -29475.07, -74160.54, -68432.05, -31642.69, -58078.17, 0.00, 0.00, 0.00
52, -58749.77, -50202.22, -73748.33, -141808.73, -40168.77, -75624.42, -108201.51, -51125.39, -47699.63, -54375.87, -26559.35, -29460.02, -74150.14, -68431.34, -31664.60, -58084.54, 0.00, 0.00, 0.00
53, -58808.22, -50265.54, -73661.13, -141896.69, -40230.72, -75534.34, -108269.73, -51109.52, -47699.63, -54375.87, -26559.35, -29460.02, -74150.14, -68431.34, -31664.60, -58084.54, 0.00, 0.00, 0.00
54, -58808.22, -50265.54, -73661.13, -141896.69, -40230.72, -75534.34, -108269.73, -51109.52, -47589.52, -54371.38, -26504.12, -29457.25, -74128.95, -68438.05, -31724.79, -58195.47, 0.00, 0.00, 0.00
55, -58729.27, -50194.44, -73738.76, -142078.44, -40186.42, -75575.27, -108187.63, -51115.33, -47589.52, -54371.38, -26504.12, -29457.25, -74128.95, -68438.05, -31724.79, -58195.47, 0.00, 0.00, 0.00
56, -58729.27, -50194.44, -73738.76, -142078.44, -40186.42, -75575.27, -108187.63, -51115.33, -47672.34, -54343.01, -26442.18, -29412.55, -74084.99, -68411.58, -31690.17, -58225.84, 0.00, 0.00, 0.00
57, -58799.79, -50277.32, -73639.09, -142160.22, -40216.91, -75504.62, -108272.18, -51093.00, -47672.34, -54343.01, -26442.18, -29412.55, -74084.99, -68411.58, -31690.17, -58225.84, 0.91, 0.02, 0.33
58, -58799.79, -50277.32, -73639.09, -142160.22, -40216.91, -75504.62, -108272.18, -51093.00, -47569.16, -54362.82, -26438.56, -29410.27, -74078.87, -68417.62, -31676.71, -58258.46, 0.00, 0.00, 0.00
59, -58685.26, -50162.52, -73745.84, -142358.86, -40164.27, -75585.44, -108160.63, -51183.75, -47569.16, -54362.82, -26438.56, -29410.27, -74078.87, -68417.62, -31676.71, -58258.46, 0.00, 0.00, 0.00
60, -58685.26, -50162.52, -73745.84, -142358.86, -40164.27, -75585.44, -108160.63, -51183.75, -47615.52, -54359.64, -26463.35, -29436.71, -74033.83, -68366.97, -31594.75, -58254.16, 0.00, 0.00, 0.00
61, -58754.87, -50232.35, -73689.32, -142479.61, -40202.92, -75542.57, -108248.58, -51219.80, -47615.52, -54359.64, -26463.35, -29436.71, -74033.83, -68366.97, -31594.75, -58254.16, 0.00, 0.00, 0.00
62, -58754.87, -50232.35, -73689.32, -142479.61, -40202.92, -75542.57, -108248.58, -51219.80, -47519.36, -54371.98, -26505.99, -29466.15, -74021.27, -68365.73, -31534.96, -58206.20, 0.00, 0.00, 0.00
63, -58604.51, -50090.97, -73831.43, -142711.50, -40143.84, -75629.12, -108114.73, -51318.20, -47519.36, -54371.98, -26505.99, -29466.15, -74021.27, -68365.73, -31534.96, -58206.20, 0.00, 0.00, 0.00
64, -58604.51, -50090.97, -73831.43, -142711.50, -40143.84, -75629.12, -108114.73, -51318.20, -47535.88, -54362.32, -26582.46, -29553.07, -73967.35, -68297.90, -31486.70, -58211.14, 0.00, 0.00, 0.00
65, -58692.62, -50173.76, -73806.71, -142855.00, -40152.67, -75551.55, -108197.59, -51355.05, -47535.88, -54362.32, -26582.46, -29553.07, -73967.35, -68297.90, -31486.70, -58211.14, 0.00, 0.00, 0.00
66, -58692.62, -50173.76, -73806.71, -142855.00, -40152.67, -75551.55, -108197.59, -51355.05, -47487.87, -54356.29, -26614.11, -29589.39, -73978.77, -68321.13, -31475.39, -58161.85, 0.00, 0.00, 0.00
67, -58547.18, -50019.65, -73939.73, -143084.03, -40080.45, -75608.66, -108064.49, -51443.03, -47487.87, -54356.29, -26614.11, -29589.39, -73978.77, -68321.13, -31475.39, -58161.85, 0.91, 0.01, 0.32
68, -58547.18, -50019.65, -73939.73, -143084.03, -40080.45, -75608.66, -108064.49, -51443.03, -47491.22, -54345.85, -26678.64, -29693.60, -73943.23, -68265.38, -31484.00, -58238.21, 0.00, 0.00, 0.00
69, -58658.66, -50121.59, -73916.10, -143220.14, -40072.07, -75522.16, -108170.70, -51455.48, -47491.22, -54345.85, -26678.64, -29693.60, -73943.23, -68265.38, -31484.00, -58238.21, 0.00, 0.00, 0.00
70, -58658.66, -50121.59, -73916.10, -143220.14, -40072.07, -75522.16, -108170.70, -51455.48, -47484.89, -54313.06, -26660.67, -29691.14, -73978.33, -68289.56, -31474.32, -58188.29, 0.00, 0.00, 0.00
71, -58528.00, -49984.46, -74019.27, -143428.81, -40035.26, -75572.27, -108034.05, -51509.30, -47484.89, -54313.06, -26660.67, -29691.14, -73978.33, -68289.56, -31474.32, -58188.29, 0.00, 0.00, 0.00
72, -58528.00, -49984.46, -74019.27, -143428.81, -40035.26, -75572.27, -108034.05, -51509.30, -47476.13, -54302.76, -26704.90, -29771.70, -73936.35, -68234.60, -31498.81, -58288.32, 0.00, 0.00, 0.00
73, -58662.66, -50103.29, -73992.45, -143559.33, -40061.86, -75491.34, -108156.06, -51498.55, -47476.13, -54302.76, -26704.90, -29771.70, -73936.35, -68234.60, -31498.81, -58288.32, 0.00, 0.00, 0.00
74, -58662.66, -50103.29, -73992.45, -143559.33, -40061.86, -75491.34, -108156.06, -51498.55, -47526.89, -54275.64, -26650.43, -29720.46, -73977.79, -68293.18, -31480.69, -58196.41, 0.00, 0.00, 0.00
75, -58552.27, -50002.08, -74061.38, -143739.75, -40061.81, -75532.80, -108055.99, -51522.04, -47526.89, -54275.64, -26650.43, -29720.46, -73977.79, -68293.18, -31480.69, -58196.41, 0.00, 0.00, 0.00
76, -58552.27, -50002.08, -74061.38, -143739.75, -40061.81, -75532.80, -108055.99, -51522.04, -47473.83, -54288.86, -26693.01, -29809.98, -73946.52, -68254.13, -31504.02, -58299.61, 0.91, 0.01, 0.32
77, -58667.27, -50128.14, -74047.20, -143871.36, -40068.25, -75482.24, -108165.14, -51499.18, -47473.83, -54288.86, -26693.01, -29809.98, -73946.52, -68254.13, -31504.02, -58299.61, 0.00, 0.00, 0.00
78, -58667.27, -50128.14, -74047.20, -143871.36, -40068.25, -75482.24, -108165.14, -51499.18, -47541.76, -54257.56, -26625.31, -29762.24, -73985.77, -68316.90, -31477.74, -58194.60, 0.00, 0.00, 0.00
79, -58561.79, -50023.31, -74081.97, -144027.95, -40058.15, -75527.10, -108068.45, -51500.90, -47541.76, -54257.56, -26625.31, -29762.24, -73985.77, -68316.90, -31477.74, -58194.60, 0.00, 0.00, 0.00
80, -58561.79, -50023.31, -74081.97, -144027.95, -40058.15, -75527.10, -108068.45, -51500.90, -47455.93, -54282.62, -26671.49, -29870.65, -73953.47, -68281.94, -31524.05, -58317.84, 0.00, 0.00, 0.00
81, -58648.38, -50115.58, -74082.10, -144162.41, -40062.37, -75489.21, -108151.64, -51477.00, -47455.93, -54282.62, -26671.49, -29870.65, -73953.47, -68281.94, -31524.05, -58317.84, 0.00, 0.00, 0.00
82, -58648.38, -50115.58, -74082.10, -144162.41, -40062.37, -75489.21, -108151.64, -51477.00, -47538.05, -54250.10, -26591.65, -29820.40, -73997.08, -68338.96, -31502.10, -58234.09, 0.00, 0.00, 0.00
83, -58567.89, -50042.89, -74092.05, -144302.95, -40079.67, -75518.61, -108085.59, -51467.10, -47538.05, -54250.10, -26591.65, -29820.40, -73997.08, -68338.96, -31502.10, -58234.09, 0.00, 0.00, 0.00
84, -58567.89, -50042.89, -74092.05, -144302.95, -40079.67, -75518.61, -108085.59, -51467.10, -47442.40, -54281.90, -26633.29, -29917.34, -73951.05, -68302.95, -31561.62, -58390.13, 0.00, 0.00, 0.00
85, -58640.27, -50114.31, -74122.79, -144450.42, -40051.44, -75503.95, -108150.72, -51456.39, -47442.40, -54281.90, -26633.29, -29917.34, -73951.05, -68302.95, -31561.62, -58390.13, 0.00, 0.00, 0.00
86, -58640.27, -50114.31, -74122.79, -144450.42, -40051.44, -75503.95, -108150.72, -51456.39, -47547.61, -54242.52, -26553.49, -29848.14, -73965.36, -68334.63, -31525.10, -58326.59, 0.91, 0.02, 0.33
87, -58578.33, -50050.14, -74117.55, -144584.53, -40049.16, -75510.65, -108090.59, -51452.57, -47547.61, -54242.52, -26553.49, -29848.14, -73965.36, -68334.63, -31525.10, -58326.59, 0.00, 0.00, 0.00
88, -58578.33, -50050.14, -74117.55, -144584.53, -40049.16, -75510.65, -108090.59, -51452.57, -47421.82, -54281.46, -26609.62, -29939.24, -73909.57, -68295.77, -31578.54, -58489.17, 0.00, 0.00, 0.00
89, -58600.15, -50066.27, -74185.70, -144761.38, -40012.04, -75515.10, -108112.23, -51462.92, -47421.82, -54281.46, -26609.62, -29939.24, -73909.57, -68295.77, -31578.54, -58489.17, 0.00, 0.00, 0.00
90, -58600.15, -50066.27, -74185.70, -144761.38, -40012.04, -75515.10, -108112.23, -51462.92, -47519.49, -54246.16, -26554.74, -29894.07, -73919.05, -68308.36, -31531.92, -58438.95, 0.00, 0.00, 0.00
91, -58554.28, -50034.76, -74177.77, -144901.42, -40041.85, -75503.84, -108085.70, -51469.50, -47519.49, -54246.16, -26554.74, -29894.07, -73919.05, -68308.36, -31531.92, -58438.95, 0.00, 0.00, 0.00
92, -58554.28, -50034.76, -74177.77, -144901.42, -40041.85, -75503.84, -108085.70, -51469.50, -47383.21, -54276.88, -26629.24, -30019.96, -73888.94, -68260.88, -31578.65, -58589.35, 0.00, 0.00, 0.00
93, -58548.20, -50019.56, -74274.82, -145094.58, -40002.27, -75509.47, -108073.77, -51508.61, -47383.21, -54276.88, -26629.24, -30019.96, -73888.94, -68260.88, -31578.65, -58589.35, 0.00, 0.00, 0.00
94, -58548.20, -50019.56, -74274.82, -145094.58, -40002.27, -75509.47, -108073.77, -51508.61, -47501.55, -54239.99, -26612.16, -30038.69, -73901.91, -68256.80, -31529.97, -58538.50, 0.00, 0.00, 0.00
95, -58544.27, -50010.48, -74247.04, -145224.20, -40044.31, -75468.67, -108060.60, -51510.82, -47501.55, -54239.99, -26612.16, -30038.69, -73901.91, -68256.80, -31529.97, -58538.50, 0.00, 0.00, 0.00
96, -58544.27, -50010.48, -74247.04, -145224.20, -40044.31, -75468.67, -108060.60, -51510.82, -47370.09, -54267.17, -26705.08, -30188.94, -73875.98, -68228.05, -31556.71, -58649.50, 0.88, 0.02, 0.36
97, -58523.84, -49988.18, -74360.45, -145427.08, -39984.77, -75503.92, -108025.04, -51552.46, -47370.09, -54267.17, -26705.08, -30188.94, -73875.98, -68228.05, -31556.71, -58649.50, 0.00, 0.00, 0.00
98, -58523.84, -49988.18, -74360.45, -145427.08, -39984.77, -75503.92, -108025.04, -51552.46, -47500.05, -54230.25, -26703.54, -30223.09, -73871.55, -68236.19, -31491.42, -58594.34, 0.00, 0.00, 0.00
99, -58578.06, -50037.86, -74313.70, -145546.02, -40032.22, -75464.94, -108079.63, -51546.72, -47500.05, -54230.25, -26703.54, -30223.09, -73871.55, -68236.19, -31491.42, -58594.34, 0.00, 0.00, 0.00
100, -58578.06, -50037.86, -74313.70, -145546.02, -40032.22, -75464.94, -108079.63, -51546.72, -47407.64, -54267.51, -26759.08, -30305.50, -73861.34, -68250.06, -31502.06, -58643.22, 0.00, 0.00, 0.00
101, -58551.11, -50017.48, -74436.23, -145754.48, -40006.43, -75529.45, -108051.64, -51593.28, -47407.64, -54267.51, -26759.08, -30305.50, -73861.34, -68250.06, -31502.06, -58643.22, 0.00, 0.00, 0.00
102, -58551.11, -50017.48, -74436.23, -145754.48, -40006.43, -75529.45, -108051.64, -51593.28, -47547.03, -54253.67, -26733.87, -30279.48, -73860.71, -68268.93, -31447.32, -58580.34, 0.00, 0.00, 0.00
103, -58655.27, -50122.76, -74366.22, -145854.98, -40060.54, -75481.33, -108161.18, -51575.00, -47547.03, -54253.67, -26733.87, -30279.48, -73860.71, -68268.93, -31447.32, -58580.34, 0.00, 0.00, 0.00
104, -58655.27, -50122.76, -74366.22, -145854.98, -40060.54, -75481.33, -108161.18, -51575.00, -47491.67, -54282.91, -26726.58, -30276.53, -73882.73, -68317.77, -31484.11, -58593.42, 0.00, 0.00, 0.00
105, -58624.62, -50090.55, -74467.83, -146038.69, -40036.60, -75563.89, -108122.98, -51603.07, -47491.67, -54282.91, -26726.58, -30276.53, -73882.73, -68317.77, -31484.11, -58593.42, 0.00, 0.00, 0.00
106, -58624.62, -50090.55, -74467.83, -146038.69, -40036.60, -75563.89, -108122.98, -51603.07, -47629.87, -54269.43, -26669.12, -30234.85, -73894.53, -68333.64, -31491.73, -58572.97, 0.89, 0.02, 0.36
107, -58764.23, -50226.36, -74367.85, -146107.05, -40143.80, -75514.47, -108254.99, -51554.59, -47629.87, -54269.43, -26669.12, -30234.85, -73894.53, -68333.64, -31491.73, -58572.97, 0.00, 0.00, 0.00
108, -58764.23, -50226.36, -74367.85, -146107.05, -40143.80, -75514.47, -108254.99, -51554.59, -47593.77, -54293.46, -26626.07, -30199.71, -73954.48, -68410.57, -31549.33, -58578.55, 0.00, 0.00, 0.00
109, -58699.99, -50165.80, -74448.45, -146268.09, -40138.73, -75604.44, -108190.15, -51566.07, -47593.77, -54293.46, -26626.07, -30199.71, -73954.48, -68410.57, -31549.33, -58578.55, 0.00, 0.00, 0.00
110, -58699.99, -50165.80, -74448.45, -146268.09, -40138.73, -75604.44, -108190.15, -51566.07, -47695.45, -54306.89, -26591.15, -30180.04, -73971.51, -68429.88, -31575.21, -58612.26, 0.00, 0.00, 0.00
111, -58846.44, -50308.63, -74344.88, -146323.52, -40204.77, -75547.71, -108331.52, -51516.43, -47695.45, -54306.89, -26591.15, -30180.04, -73971.51, -68429.88, -31575.21, -58612.26, 0.00, 0.00, 0.00
112, -58846.44, -50308.63, -74344.88, -146323.52, -40204.77, -75547.71, -108331.52, -51516.43, -47674.84, -54325.00, -26534.07, -30117.01, -74033.49, -68490.30, -31617.28, -58594.22, 0.00, 0.00, 0.00
113, -58752.30, -50217.80, -74413.42, -146468.25, -40197.82, -75643.64, -108229.53, -51528.82, -47674.84, -54325.00, -26534.07, -30117.01, -74033.49, -68490.30, -31617.28, -58594.22, 0.00, 0.00, 0.00
114, -58752.30, -50217.80, -74413.42, -146468.25, -40197.82, -75643.64, -108229.53, -51528.82, -47734.20, -54336.64, -26517.28, -30107.73, -74033.63, -68473.29, -31645.20, -58644.80, 0.00, 0.00, 0.00
115, -58901.43, -50359.62, -74321.25, -146529.45, -40279.21, -75593.24, -108385.13, -51493.90, -47734.20, -54336.64, -26517.28, -30107.73, -74033.63, -68473.29, -31645.20, -58644.80, 0.00, 0.00, 0.00
116, -58901.43, -50359.62, -74321.25, -146529.45, -40279.21, -75593.24, -108385.13, -51493.90, -47738.83, -54353.18, -26465.07, -30031.58, -74096.68, -68536.68, -31674.54, -58588.23, 0.92, 0.02, 0.33
117, -58781.75, -50243.99, -74387.66, -146677.28, -40269.28, -75681.02, -108268.18, -51522.78, -47738.83, -54353.18, -26465.07, -30031.58, -74096.68, -68536.68, -31674.54, -58588.23, 0.00, 0.00, 0.00
118, -58781.75, -50243.99, -74387.66, -146677.28, -40269.28, -75681.02, -108268.18, -51522.78, -47736.44, -54380.74, -26490.84, -30059.77, -74079.67, -68491.91, -31698.21, -58652.36, 0.00, 0.00, 0.00
119, -58892.40, -50354.84, -74314.27, -146752.20, -40289.64, -75623.52, -108388.81, -51503.69, -47736.44, -54380.74, -26490.84, -30059.77, -74079.67, -68491.91, -31698.21, -58652.36, 0.00, 0.00, 0.00
120, -58892.40, -50354.84, -74314.27, -146752.20, -40289.64, -75623.52, -108388.81, -51503.69, -47738.88, -54380.54, -26446.74, -29997.27, -74121.04, -68547.01, -31689.56, -58571.98, 0.00, 0.00, 0.00
121, -58754.15, -50211.79, -74366.17, -146900.23, -40258.46, -75690.02, -108262.48, -51533.64, -47738.88, -54380.54, -26446.74, -29997.27, -74121.04, -68547.01, -31689.56, -58571.98, 0.00, 0.00, 0.00
122, -58754.15, -50211.79, -74366.17, -146900.23, -40258.46, -75690.02, -108262.48, -51533.64, -47705.77, -54403.29, -26498.84, -30065.78, -74070.55, -68499.18, -31720.16, -58667.72, 0.00, 0.00, 0.00
123, -58876.88, -50329.96, -74320.89, -146992.16, -40247.64, -75630.32, -108363.27, -51520.95, -47705.77, -54403.29, -26498.84, -30065.78, -74070.55, -68499.18, -31720.16, -58667.72, 0.00, 0.00, 0.00
124, -58876.88, -50329.96, -74320.89, -146992.16, -40247.64, -75630.32, -108363.27, -51520.95, -47748.33, -54397.62, -26461.83, -30011.75, -74085.10, -68539.70, -31698.95, -58580.46, 0.00, 0.00, 0.00
125, -58763.83, -50234.25, -74367.72, -147139.89, -40234.61, -75680.77, -108267.84, -51549.96, -47748.33, -54397.62, -26461.83, -30011.75, -74085.10, -68539.70, -31698.95, -58580.46, 0.00, 0.00, 0.00
126, -58763.83, -50234.25, -74367.72, -147139.89, -40234.61, -75680.77, -108267.84, -51549.96, -47692.86, -54439.01, -26540.91, -30101.43, -74040.13, -68492.31, -31731.74, -58698.83, 0.92, 0.03, 0.36
127, -58884.51, -50351.21, -74353.12, -147256.80, -40221.02, -75638.14, -108356.85, -51551.82, -47692.86, -54439.01, -26540.91, -30101.43, -74040.13, -68492.31, -31731.74, -58698.83, 0.00, 0.00, 0.00
128, -58884.51, -50351.21, -74353.12, -147256.80, -40221.02, -75638.14, -108356.85, -51551.82, -47775.96, -54421.09, -26496.52, -30022.42, -74066.02, -68539.03, -31694.33, -58579.63, 0.00, 0.00, 0.00
129, -58795.99, -50258.14, -74370.87, -147395.27, -40226.99, -75681.69, -108278.44, -51573.92, -47775.96, -54421.09, -26496.52, -30022.42, -74066.02, -68539.03, -31694.33, -58579.63, 0.00, 0.00, 0.00
130, -58795.99, -50258.14, -74370.87, -147395.27, -40226.99, -75681.69, -108278.44, -51573.92, -47702.53, -54457.01, -26567.48, -30094.25, -74026.52, -68497.21, -31714.44, -58672.88, 0.00, 0.00, 0.00
131, -58888.93, -50344.48, -74379.90, -147524.44, -40249.10, -75673.82, -108354.21, -51582.30, -47702.53, -54457.01, -26567.48, -30094.25, -74026.52, -68497.21, -31714.44, -58672.88, 0.00, 0.00, 0.00
132, -58888.93, -50344.48, -74379.90, -147524.44, -40249.10, -75673.82, -108354.21, -51582.30, -47807.72, -54430.52, -26514.53, -30015.75, -74069.21, -68553.78, -31674.50, -58554.08, 0.00, 0.00, 0.00
133, -58827.11, -50291.20, -74376.70, -147650.19, -40296.28, -75700.91, -108298.18, -51591.71, -47807.72, -54430.52, -26514.53, -30015.75, -74069.21, -68553.78, -31674.50, -58554.08, 0.00, 0.00, 0.00
134, -58827.11, -50291.20, -74376.70, -147650.19, -40296.28, -75700.91, -108298.18, -51591.71, -47714.96, -54459.11, -26587.24, -30106.64, -74058.45, -68519.56, -31728.41, -58677.93, 0.00, 0.00, 0.00
135, -58897.36, -50350.21, -74397.20, -147782.91, -40268.32, -75694.07, -108370.91, -51594.22, -47714.96, -54459.11, -26587.24, -30106.64, -74058.45, -68519.56, -31728.41, -58677.93, 0.00, 0.00, 0.00
136, -58897.36, -50350.21, -74397.20, -147782.91, -40268.32, -75694.07, -108370.91, -51594.22, -47841.54, -54423.77, -26529.49, -30034.20, -74105.87, -68570.91, -31700.63, -58575.54, 0.96, 0.01, 0.35
137, -58871.45, -50319.74, -74351.98, -147877.81, -40310.59, -75699.77, -108341.12, -51582.62, -47841.54, -54423.77, -26529.49, -30034.20, -74105.87, -68570.91, -31700.63, -58575.54, 0.00, 0.00, 0.00
138, -58871.45, -50319.74, -74351.98, -147877.81, -40310.59, -75699.77, -108341.12, -51582.62, -47741.56, -54470.20, -26587.80, -30096.71, -74090.40, -68564.11, -31770.23, -58673.86, 0.00, 0.00, 0.00
139, -58906.12, -50371.75, -74390.98, -148016.33, -40290.40, -75720.63, -108381.41, -51600.18, -47741.56, -54470.20, -26587.80, -30096.71, -74090.40, -68564.11, -31770.23, -58673.86, 0.00, 0.00, 0.00
140, -58906.12, -50371.75, -74390.98, -148016.33, -40290.40, -75720.63, -108381.41, -51600.18, -47859.22, -54446.77, -26531.32, -30001.52, -74102.94, -68582.13, -31725.84, -58569.66, 0.00, 0.00, 0.00
141, -58876.37, -50350.41, -74338.28, -148114.13, -40322.52, -75704.66, -108373.95, -51609.71, -47859.22, -54446.77, -26531.32, -30001.52, -74102.94, -68582.13, -31725.84, -58569.66, 0.00, 0.00, 0.00
142, -58876.37, -50350.41, -74338.28, -148114.13, -40322.52, -75704.66, -108373.95, -51609.71, -47714.07, -54483.27, -26601.91, -30068.33, -74101.41, -68551.81, -31770.93, -58673.33, 0.00, 0.00, 0.00
143, -58851.11, -50316.88, -74424.98, -148293.14, -40267.89, -75740.09, -108342.86, -51669.41, -47714.07, -54483.27, -26601.91, -30068.33, -74101.41, -68551.81, -31770.93, -58673.33, 0.00, 0.00, 0.00
144, -58851.11, -50316.88, -74424.98, -148293.14, -40267.89, -75740.09, -108342.86, -51669.41, -47821.22, -54442.54, -26574.46, -30024.52, -74113.22, -68542.20, -31714.08, -58586.04, 0.00, 0.00, 0.00
145, -58856.95, -50306.76, -74369.52, -148395.06, -40295.88, -75700.91, -108356.65, -51675.93, -47821.22, -54442.54, -26574.46, -30024.52, -74113.22, -68542.20, -31714.08, -58586.04, 0.00, 0.00, 0.00
146, -58856.95, -50306.76, -74369.52, -148395.06, -40295.88, -75700.91, -108356.65, -51675.93, -47684.07, -54483.14, -26655.44, -30112.67, -74087.49, -68529.17, -31724.70, -58639.91, 0.91, 0.01, 0.36
147, -58807.91, -50285.21, -74482.13, -148585.73, -40245.34, -75737.88, -108300.14, -51725.45, -47684.07, -54483.14, -26655.44, -30112.67, -74087.49, -68529.17, -31724.70, -58639.91, 0.00, 0.00, 0.00
148, -58807.91, -50285.21, -74482.13, -148585.73, -40245.34, -75737.88, -108300.14, -51725.45, -47788.74, -54457.97, -26668.54, -30127.67, -74073.08, -68525.64, -31662.41, -58568.41, 0.00, 0.00, 0.00
149, -58855.05, -50310.89, -74425.16, -148684.22, -40278.13, -75687.88, -108349.77, -51723.45, -47788.74, -54457.97, -26668.54, -30127.67, -74073.08, -68525.64, -31662.41, -58568.41, 0.00, 0.00, 0.00
150, -58855.05, -50310.89, -74425.16, -148684.22, -40278.13, -75687.88, -108349.77, -51723.45, -47679.96, -54480.97, -26731.63, -30214.37, -74066.44, -68530.27, -31684.56, -58588.10, 0.00, 0.00, 0.00
151, -58797.67, -50272.47, -74532.78, -148867.19, -40221.96, -75751.42, -108293.35, -51763.09, -47679.96, -54480.97, -26731.63, -30214.37, -74066.44, -68530.27, -31684.56, -58588.10, 0.00, 0.00, 0.00
152, -58797.67, -50272.47, -74532.78, -148867.19, -40221.96, -75751.42, -108293.35, -51763.09, -47788.79, -54447.55, -26726.00, -30227.96, -74066.57, -68527.00, -31639.83, -58521.60, 0.00, 0.00, 0.00
153, -58891.03, -50368.76, -74442.20, -148938.27, -40289.00, -75684.01, -108384.27, -51724.84, -47788.79, -54447.55, -26726.00, -30227.96, -74066.57, -68527.00, -31639.83, -58521.60, 0.00, 0.00, 0.00
154, -58891.03, -50368.76, -74442.20, -148938.27, -40289.00, -75684.01, -108384.27, -51724.84, -47715.27, -54460.43, -26730.99, -30250.29, -74092.55, -68564.20, -31672.98, -58523.91, 0.00, 0.00, 0.00
155, -58820.85, -50292.72, -74530.30, -149098.77, -40252.94, -75748.54, -108309.35, -51733.71, -47715.27, -54460.43, -26730.99, -30250.29, -74092.55, -68564.20, -31672.98, -58523.91, 0.00, 0.00, 0.00
156, -58820.85, -50292.72, -74530.30, -149098.77, -40252.94, -75748.54, -108309.35, -51733.71, -47811.39, -54435.82, -26694.11, -30232.34, -74097.30, -68565.60, -31683.15, -58531.75, 0.90, 0.03, 0.35
157, -58951.25, -50423.10, -74426.16, -149148.42, -40311.06, -75668.85, -108437.77, -51676.38, -47811.39, -54435.82, -26694.11, -30232.34, -74097.30, -68565.60, -31683.15, -58531.75, 0.00, 0.00, 0.00
158, -58951.25, -50423.10, -74426.16, -149148.42, -40311.06, -75668.85, -108437.77, -51676.38, -47776.58, -54443.39, -26636.13, -30177.00, -74156.72, -68631.72, -31746.07, -58557.72, 0.00, 0.00, 0.00
159, -58872.97, -50338.94, -74495.10, -149287.28, -40291.21, -75747.78, -108349.59, -51679.36, -47776.58, -54443.39, -26636.13, -30177.00, -74156.72, -68631.72, -31746.07, -58557.72, 0.00, 0.00, 0.00
160, -58872.97, -50338.94, -74495.10, -149287.28, -40291.21, -75747.78, -108349.59, -51679.36, -47857.63, -54439.62, -26587.02, -30127.54, -74141.80, -68619.79, -31769.07, -58630.21, 0.00, 0.00, 0.00
161, -59011.57, -50481.14, -74382.27, -149329.83, -40356.30, -75692.44, -108499.30, -51624.21, -47857.63, -54439.62, -26587.02, -30127.54, -74141.80, -68619.79, -31769.07, -58630.21, 0.00, 0.00, 0.00
162, -59011.57, -50481.14, -74382.27, -149329.83, -40356.30, -75692.44, -108499.30, -51624.21, -47848.42, -54451.35, -26514.53, -30021.45, -74180.07, -68676.73, -31802.91, -58633.03, 0.00, 0.00, 0.00
163, -58917.05, -50383.65, -74450.57, -149470.52, -40348.21, -75782.07, -108398.98, -51650.90, -47848.42, -54451.35, -26514.53, -30021.45, -74180.07, -68676.73, -31802.91, -58633.03, 0.00, 0.00, 0.00
164, -58917.05, -50383.65, -74450.57, -149470.52, -40348.21, -75782.07, -108398.98, -51650.90, -47893.48, -54484.32, -26517.84, -29992.42, -74150.34, -68647.70, -31824.08, -58718.39, 0.00, 0.00, 0.00
165, -59051.59, -50516.50, -74381.35, -149541.39, -40392.93, -75731.87, -108529.38, -51644.82, -47893.48, -54484.32, -26517.84, -29992.42, -74150.34, -68647.70, -31824.08, -58718.39, 0.00, 0.00, 0.00
166, -59051.59, -50516.50, -74381.35, -149541.39, -40392.93, -75731.87, -108529.38, -51644.82, -47883.25, -54505.58, -26481.77, -29900.06, -74181.50, -68699.27, -31817.66, -58662.44, 0.90, 0.02, 0.35
167, -58918.73, -50387.58, -74466.69, -149707.20, -40356.14, -75810.50, -108411.30, -51702.49, -47883.25, -54505.58, -26481.77, -29900.06, -74181.50, -68699.27, -31817.66, -58662.44, 0.00, 0.00, 0.00
168, -58918.73, -50387.58, -74466.69, -149707.20, -40356.14, -75810.50, -108411.30, -51702.49, -47869.59, -54537.16, -26549.09, -29944.32, -74154.03, -68650.43, -31812.14, -58738.66, 0.00, 0.00, 0.00
169, -59028.00, -50493.26, -74434.28, -149815.53, -40381.00, -75759.88, -108507.75, -51717.78, -47869.59, -54537.16, -26549.09, -29944.32, -74154.03, -68650.43, -31812.14, -58738.66, 0.00, 0.00, 0.00
170, -59028.00, -50493.26, -74434.28, -149815.53, -40381.00, -75759.88, -108507.75, -51717.78, -47876.99, -54535.84, -26555.35, -29908.42, -74194.98, -68684.65, -31770.23, -58642.13, 0.00, 0.00, 0.00
171, -58873.84, -50346.72, -74526.88, -150001.08, -40350.20, -75821.07, -108380.37, -51787.07, -47876.99, -54535.84, -26555.35, -29908.42, -74194.98, -68684.65, -31770.23, -58642.13, 0.00, 0.00, 0.00
172, -58873.84, -50346.72, -74526.88, -150001.08, -40350.20, -75821.07, -108380.37, -51787.07, -47810.09, -54572.07, -26685.48, -30038.58, -74148.89, -68616.45, -31776.65, -58738.01, 0.00, 0.00, 0.00
173, -58967.77, -50433.43, -74537.25, -150144.64, -40339.18, -75768.99, -108454.23, -51816.71, -47810.09, -54572.07, -26685.48, -30038.58, -74148.89, -68616.45, -31776.65, -58738.01, 0.00, 0.00, 0.00
174, -58967.77, -50433.43, -74537.25, -150144.64, -40339.18, -75768.99, -108454.23, -51816.71, -47840.09, -54550.70, -26712.05, -30030.30, -74167.63, -68641.00, -31725.86, -58622.30, 0.00, 0.00, 0.00
175, -58826.86, -50289.46, -74612.63, -150328.86, -40318.95, -75806.85, -108320.17, -51873.84, -47840.09, -54550.70, -26712.05, -30030.30, -74167.63, -68641.00, -31725.86, -58622.30, 0.00, 0.00, 0.00
176, -58826.86, -50289.46, -74612.63, -150328.86, -40318.95, -75806.85, -108320.17, -51873.84, -47743.32, -54572.48, -26842.01, -30168.08, -74103.85, -68560.95, -31740.71, -58719.46, 0.92, 0.01, 0.36
177, -58911.24, -50366.28, -74639.02, -150486.95, -40306.36, -75751.42, -108400.73, -51901.24, -47743.32, -54572.48, -26842.01, -30168.08, -74103.85, -68560.95, -31740.71, -58719.46, 0.00, 0.00, 0.00
178, -58911.24, -50366.28, -74639.02, -150486.95, -40306.36, -75751.42, -108400.73, -51901.24, -47818.85, -54534.39, -26831.14, -30136.03, -74142.66, -68591.60, -31705.66, -58592.86, 0.00, 0.00, 0.00
179, -58824.74, -50281.48, -74679.66, -150647.94, -40292.17, -75773.66, -108321.24, -51924.33, -47818.85, -54534.39, -26831.14, -30136.03, -74142.66, -68591.60, -31705.66, -58592.86, 0.00, 0.00, 0.00
180, -58824.74, -50281.48, -74679.66, -150647.94, -40292.17, -75773.66, -108321.24, -51924.33, -47736.69, -54558.86, -26925.36, -30248.08, -74111.81, -68564.20, -31744.71, -58708.62, 0.00, 0.00, 0.00
181, -58920.29, -50387.91, -74713.09, -150791.75, -40279.86, -75760.77, -108401.62, -51916.02, -47736.69, -54558.86, -26925.36, -30248.08, -74111.81, -68564.20, -31744.71, -58708.62, 0.00, 0.00, 0.00
182, -58920.29, -50387.91, -74713.09, -150791.75, -40279.86, -75760.77, -108401.62, -51916.02, -47867.09, -54517.87, -26861.30, -30168.66, -74146.99, -68621.73, -31702.55, -58608.26, 0.00, 0.00, 0.00
183, -58894.99, -50361.21, -74705.05, -150910.69, -40334.48, -75771.85, -108383.13, -51904.93, -47867.09, -54517.87, -26861.30, -30168.66, -74146.99, -68621.73, -31702.55, -58608.26, 0.00, 0.00, 0.00
184, -58894.99, -50361.21, -74705.05, -150910.69, -40334.48, -75771.85, -108383.13, -51904.93, -47805.11, -54550.14, -26898.47, -30214.28, -74129.76, -68616.92, -31763.55, -58737.05, 0.00, 0.00, 0.00
185, -59008.80, -50468.94, -74734.71, -151036.39, -40358.31, -75784.66, -108458.38, -51904.66, -47805.11, -54550.14, -26898.47, -30214.28, -74129.76, -68616.92, -31763.55, -58737.05, 0.00, 0.00, 0.00
186, -59008.80, -50468.94, -74734.71, -151036.39, -40358.31, -75784.66, -108458.38, -51904.66, -47985.82, -54520.51, -26789.37, -30071.59, -74211.05, -68695.38, -31746.32, -58636.69, 0.91, 0.01, 0.34
187, -59019.04, -50481.48, -74679.86, -151112.22, -40442.55, -75794.63, -108484.52, -51876.99, -47985.82, -54520.51, -26789.37, -30071.59, -74211.05, -68695.38, -31746.32, -58636.69, 0.00, 0.00, 0.00
188, -59019.04, -50481.48, -74679.86, -151112.22, -40442.55, -75794.63, -108484.52, -51876.99, -47899.32, -54568.14, -26799.99, -30073.60, -74236.31, -68703.20, -31824.41, -58739.02, 0.00, 0.00, 0.00
189, -59064.89, -50521.64, -74723.66, -151234.67, -40443.34, -75840.36, -108541.25, -51865.10, -47899.32, -54568.14, -26799.99, -30073.60, -74236.31, -68703.20, -31824.41, -58739.02, 0.00, 0.00, 0.00
190, -59064.89, -50521.64, -74723.66, -151234.67, -40443.34, -75840.36, -108541.25, -51865.10, -48030.59, -54550.59, -26716.28, -29957.21, -74286.94, -68758.37, -31815.96, -58635.22, 0.00, 0.00, 0.00
191, -59042.38, -50498.20, -74662.87, -151310.75, -40471.07, -75829.23, -108527.08, -51812.01, -48030.59, -54550.59, -26716.28, -29957.21, -74286.94, -68758.37, -31815.96, -58635.22, 0.00, 0.00, 0.00
192, -59042.38, -50498.20, -74662.87, -151310.75, -40471.07, -75829.23, -108527.08, -51812.01, -47892.93, -54593.75, -26763.98, -30002.57, -74259.89, -68735.86, -31873.72, -58709.65, 0.00, 0.00, 0.00
193, -59019.58, -50471.91, -74751.96, -151469.30, -40390.90, -75872.01, -108484.86, -51831.37, -47892.93, -54593.75, -26763.98, -30002.57, -74259.89, -68735.86, -31873.72, -58709.65, 0.00, 0.00, 0.00
194, -59019.58, -50471.91, -74751.96, -151469.30, -40390.90, -75872.01, -108484.86, -51831.37, -47995.43, -54563.11, -26737.74, -29956.70, -74251.33, -68722.13, -31831.07, -58639.91, 0.00, 0.00, 0.00
195, -59026.02, -50478.24, -74699.21, -151558.61, -40446.55, -75831.46, -108502.94, -51793.64, -47995.43, -54563.11, -26737.74, -29956.70, -74251.33, -68722.13, -31831.07, -58639.91, 0.00, 0.00, 0.00
196, -59026.02, -50478.24, -74699.21, -151558.61, -40446.55, -75831.46, -108502.94, -51793.64, -47861.88, -54597.80, -26805.04, -30020.13, -74221.49, -68705.17, -31863.19, -58711.23, 0.90, 0.01, 0.35
197, -58987.95, -50440.06, -74801.81, -151726.00, -40395.37, -75880.37, -108449.27, -51823.70, -47861.88, -54597.80, -26805.04, -30020.13, -74221.49, -68705.17, -31863.19, -58711.23, 0.00, 0.00, 0.00
198, -58987.95, -50440.06, -74801.81, -151726.00, -40395.37, -75880.37, -108449.27, -51823.70, -48004.44, -54571.25, -26789.86, -29992.64, -74231.70, -68723.74, -31828.10, -58676.72, 0.00, 0.00, 0.00
199, -59067.68, -50518.67, -74712.36, -151786.36, -40469.89, -75836.80, -108550.91, -51800.66, -48004.44, -54571.25, -26789.86, -29992.64, -74231.70, -68723.74, -31828.10, -58676.72, 0.00, 0.00, 0.00
200, -59067.68, -50518.67, -74712.36, -151786.36, -40469.89, -75836.80, -108550.91, -51800.66, -47908.64, -54594.40, -26817.91, -30018.86, -74251.62, -68752.55, -31870.99, -58682.67, 0.00, 0.00, 0.00
201, -59016.34, -50463.93, -74803.35, -151942.75, -40422.03, -75901.29, -108493.20, -51821.55, -47908.64, -54594.40, -26817.91, -30018.86, -74251.62, -68752.55, -31870.99, -58682.67, 0.00, 0.00, 0.00
202, -59016.34, -50463.93, -74803.35, -151942.75, -40422.03, -75901.29, -108493.20, -51821.55, -48039.82, -54575.49, -26800.93, -29999.44, -74268.56, -68758.81, -31864.18, -58656.43, 0.00, 0.00, 0.00
203, -59122.17, -50571.71, -74697.94, -151988.03, -40479.63, -75838.86, -108598.56, -51777.75, -48039.82, -54575.49, -26800.93, -29999.44, -74268.56, -68758.81, -31864.18, -58656.43, 0.00, 0.00, 0.00
204, -59122.17, -50571.71, -74697.94, -151988.03, -40479.63, -75838.86, -108598.56, -51777.75, -47948.91, -54589.69, -26800.97, -30004.82, -74309.13, -68799.85, -31909.42, -58657.21, 0.00, 0.00, 0.00
205, -59018.33, -50474.68, -74782.12, -152137.91, -40440.45, -75897.65, -108494.96, -51796.88, -47948.91, -54589.69, -26800.97, -30004.82, -74309.13, -68799.85, -31909.42, -58657.21, 0.00, 0.00, 0.00
206, -59018.33, -50474.68, -74782.12, -152137.91, -40440.45, -75897.65, -108494.96, -51796.88, -48028.27, -54571.85, -26783.42, -30005.54, -74293.33, -68773.12, -31921.75, -58681.46, 0.91, -0.00, 0.35
207, -59131.02, -50569.16, -74666.34, -152176.80, -40495.35, -75804.28, -108608.02, -51749.63, -48028.27, -54571.85, -26783.42, -30005.54, -74293.33, -68773.12, -31921.75, -58681.46, 0.00, 0.00, 0.00
208, -59131.02, -50569.16, -74666.34, -152176.80, -40495.35, -75804.28, -108608.02, -51749.63, -47968.52, -54564.09, -26742.74, -29968.86, -74304.44, -68811.63, -31960.47, -58663.05, 0.00, 0.00, 0.00
209, -59014.59, -50466.82, -74726.64, -152308.25, -40435.60, -75858.55, -108492.66, -51760.07, -47968.52, -54564.09, -26742.74, -29968.86, -74304.44, -68811.63, -31960.47, -58663.05, 0.00, 0.00, 0.00
210, -59014.59, -50466.82, -74726.64, -152308.25, -40435.60, -75858.55, -108492.66, -51760.07, -48018.52, -54551.15, -26730.45, -29974.85, -74271.02, -68791.42, -31976.63, -58714.07, 0.00, 0.00, 0.00
211, -59137.15, -50604.01, -74617.63, -152347.14, -40480.93, -75780.10, -108617.25, -51711.65, -48018.52, -54551.15, -26730.45, -29974.85, -74271.02, -68791.42, -31976.63, -58714.07, 0.00, 0.00, 0.00
212, -59137.15, -50604.01, -74617.63, -152347.14, -40480.93, -75780.10, -108617.25, -51711.65, -47990.98, -54545.79, -26684.88, -29924.94, -74307.61, -68838.19, -31987.07, -58662.53, 0.00, 0.00, 0.00
213, -59015.87, -50474.53, -74713.54, -152484.84, -40452.30, -75873.15, -108485.87, -51726.70, -47990.98, -54545.79, -26684.88, -29924.94, -74307.61, -68838.19, -31987.07, -58662.53, 0.00, 0.00, 0.00
214, -59015.87, -50474.53, -74713.54, -152484.84, -40452.30, -75873.15, -108485.87, -51726.70, -48006.14, -54554.17, -26714.20, -29971.79, -74272.19, -68788.48, -31981.21, -58722.41, 0.00, 0.00, 0.00
215, -59147.16, -50599.16, -74624.16, -152533.94, -40483.57, -75820.78, -108607.44, -51697.21, -48006.14, -54554.17, -26714.20, -29971.79, -74272.19, -68788.48, -31981.21, -58722.41, 0.00, 0.00, 0.00
216, -59147.16, -50599.16, -74624.16, -152533.94, -40483.57, -75820.78, -108607.44, -51697.21, -48009.55, -54545.38, -26677.81, -29932.09, -74310.16, -68833.98, -31955.91, -58643.20, 0.90, 0.01, 0.35
217, -59014.21, -50477.03, -74664.41, -152659.03, -40445.01, -75890.27, -108483.90, -51718.07, -48009.55, -54545.38, -26677.81, -29932.09, -74310.16, -68833.98, -31955.91, -58643.20, 0.00, 0.00, 0.00
218, -59014.21, -50477.03, -74664.41, -152659.03, -40445.01, -75890.27, -108483.90, -51718.07, -47979.92, -54565.68, -26729.36, -30018.39, -74277.23, -68786.58, -31972.00, -58728.47, 0.00, 0.00, 0.00
219, -59136.93, -50595.79, -74598.77, -152730.63, -40465.69, -75827.24, -108602.54, -51697.55, -47979.92, -54565.68, -26729.36, -30018.39, -74277.23, -68786.58, -31972.00, -58728.47, 0.00, 0.00, 0.00
220, -59136.93, -50595.79, -74598.77, -152730.63, -40465.69, -75827.24, -108602.54, -51697.55, -48018.07, -54551.02, -26685.43, -29965.08, -74304.13, -68833.73, -31953.83, -58627.82, 0.00, 0.00, 0.00
221, -59014.97, -50471.87, -74636.63, -152855.53, -40449.10, -75881.95, -108493.64, -51729.27, -48018.07, -54551.02, -26685.43, -29965.08, -74304.13, -68833.73, -31953.83, -58627.82, 0.00, 0.00, 0.00
222, -59014.97, -50471.87, -74636.63, -152855.53, -40449.10, -75881.95, -108493.64, -51729.27, -47968.81, -54583.16, -26742.77, -30027.76, -74253.16, -68775.96, -31973.72, -58730.86, 0.00, 0.00, 0.00
223, -59141.21, -50593.08, -74607.20, -152938.77, -40466.09, -75846.24, -108602.18, -51738.63, -47968.81, -54583.16, -26742.77, -30027.76, -74253.16, -68775.96, -31973.72, -58730.86, 0.00, 0.00, 0.00
224, -59141.21, -50593.08, -74607.20, -152938.77, -40466.09, -75846.24, -108602.18, -51738.63, -48053.37, -54569.05, -26687.15, -29942.71, -74307.79, -68833.54, -31948.11, -58628.96, 0.00, 0.00, 0.00
225, -59047.65, -50501.89, -74623.22, -153047.86, -40486.85, -75900.24, -108527.33, -51771.38, -48053.37, -54569.05, -26687.15, -29942.71, -74307.79, -68833.54, -31948.11, -58628.96, 0.00, 0.00, 0.00
226, -59047.65, -50501.89, -74623.22, -153047.86, -40486.85, -75900.24, -108527.33, -51771.38, -47981.95, -54603.61, -26745.47, -30023.49, -74300.39, -68794.98, -31992.70, -58744.38, 0.90, 0.02, 0.35
227, -59150.18, -50602.92, -74605.52, -153132.75, -40502.23, -75871.59, -108614.56, -51777.90, -47981.95, -54603.61, -26745.47, -30023.49, -74300.39, -68794.98, -31992.70, -58744.38, 0.00, 0.00, 0.00
228, -59150.18, -50602.92, -74605.52, -153132.75, -40502.23, -75871.59, -108614.56, -51777.90, -48078.00, -54576.10, -26677.12, -29942.57, -74346.23, -68859.80, -31959.35, -58611.23, 0.00, 0.00, 0.00
229, -59064.46, -50512.77, -74592.20, -153222.72, -40504.27, -75894.92, -108529.49, -51769.57, -48078.00, -54576.10, -26677.12, -29942.57, -74346.23, -68859.80, -31959.35, -58611.23, 0.00, 0.00, 0.00
230, -59064.46, -50512.77, -74592.20, -153222.72, -40504.27, -75894.92, -108529.49, -51769.57, -47971.34, -54605.64, -26745.22, -30029.01, -74317.83, -68817.63, -31995.43, -58717.52, 0.00, 0.00, 0.00
231, -59124.50, -50579.29, -74602.43, -153321.61, -40488.42, -75874.94, -108594.23, -51781.97, -47971.34, -54605.64, -26745.22, -30029.01, -74317.83, -68817.63, -31995.43, -58717.52, 0.00, 0.00, 0.00
232, -59124.50, -50579.29, -74602.43, -153321.61, -40488.42, -75874.94, -108594.23, -51781.97, -48072.68, -54565.86, -26685.46, -29946.04, -74326.81, -68841.72, -31957.05, -58613.67, 0.00, 0.00, 0.00
233, -59055.23, -50513.46, -74572.97, -153410.20, -40512.71, -75864.41, -108529.52, -51797.37, -48072.68, -54565.86, -26685.46, -29946.04, -74326.81, -68841.72, -31957.05, -58613.67, 0.00, 0.00, 0.00
234, -59055.23, -50513.46, -74572.97, -153410.20, -40512.71, -75864.41, -108529.52, -51797.37, -47951.55, -54600.55, -26745.87, -30024.31, -74270.44, -68816.21, -32014.00, -58779.77, 0.00, 0.00, 0.00
235, -59112.11, -50562.04, -74613.38, -153531.25, -40467.50, -75883.45, -108572.97, -51805.46, -47951.55, -54600.55, -26745.87, -30024.31, -74270.44, -68816.21, -32014.00, -58779.77, 0.00, 0.00, 0.00
236, -59112.11, -50562.04, -74613.38, -153531.25, -40467.50, -75883.45, -108572.97, -51805.46, -48098.11, -54563.29, -26669.97, -29936.88, -74291.63, -68845.20, -31960.60, -58711.04, 0.90, 0.01, 0.41
237, -59111.31, -50562.30, -74563.54, -153607.58, -40503.82, -75887.61, -108571.90, -51787.98, -48098.11, -54563.29, -26669.97, -29936.88, -74291.63, -68845.20, -31960.60, -58711.04, 0.00, 0.00, 0.00
238, -59111.31, -50562.30, -74563.54, -153607.58, -40503.82, -75887.61, -108571.90, -51787.98, -47992.64, -54605.85, -26725.15, -29973.53, -74273.50, -68824.38, -31988.12, -58798.47, 0.00, 0.00, 0.00
239, -59132.28, -50583.89, -74621.97, -153733.02, -40451.61, -75923.11, -108588.19, -51824.73, -47992.64, -54605.85, -26725.15, -29973.53, -74273.50, -68824.38, -31988.12, -58798.47, 0.00, 0.00, 0.00
240, -59132.28, -50583.89, -74621.97, -153733.02, -40451.61, -75923.11, -108588.19, -51824.73, -48137.07, -54586.80, -26680.40, -29884.10, -74310.92, -68858.44, -31919.65, -58696.42, 0.00, 0.00, 0.00
241, -59166.94, -50620.48, -74549.16, -153797.00, -40517.12, -75903.52, -108634.93, -51840.40, -48137.07, -54586.80, -26680.40, -29884.10, -74310.92, -68858.44, -31919.65, -58696.42, 0.00, 0.00, 0.00
242, -59166.94, -50620.48, -74549.16, -153797.00, -40517.12, -75903.52, -108634.93, -51840.40, -48022.41, -54630.72, -26731.97, -29931.94, -74337.56, -68875.71, -31972.67, -58746.48, 0.00, 0.00, 0.00
243, -59106.26, -50555.22, -74627.76, -153943.98, -40467.09, -75954.20, -108576.92, -51867.60, -48022.41, -54630.72, -26731.97, -29931.94, -74337.56, -68875.71, -31972.67, -58746.48, 0.00, 0.00, 0.00
244, -59106.26, -50555.22, -74627.76, -153943.98, -40467.09, -75954.20, -108576.92, -51867.60, -48085.02, -54606.23, -26734.47, -29917.52, -74321.34, -68855.33, -31944.91, -58645.21, 0.00, 0.00, 0.00
245, -59098.82, -50548.22, -74555.91, -154015.77, -40453.23, -75902.32, -108560.01, -51844.85, -48085.02, -54606.23, -26734.47, -29917.52, -74321.34, -68855.33, -31944.91, -58645.21, 0.00, 0.00, 0.00
246, -59098.82, -50548.22, -74555.91, -154015.77, -40453.23, -75902.32, -108560.01, -51844.85, -47936.87, -54626.57, -26816.95, -30031.33, -74303.95, -68843.05, -32007.81, -58761.95, 0.85, 0.06, 0.43
247, -59042.27, -50494.71, -74644.32, -154173.23, -40400.51, -75938.69, -108495.25, -51855.93, -47936.87, -54626.57, -26816.95, -30031.33, -74303.95, -68843.05, -32007.81, -58761.95, 0.00, 0.00, 0.00
248, -59042.27, -50494.71, -74644.32, -154173.23, -40400.51, -75938.69, -108495.25, -51855.93, -48079.47, -54596.08, -26804.77, -30056.68, -74307.74, -68850.30, -31989.01, -58829.12, 0.00, 0.00, 0.00
249, -59156.01, -50608.01, -74529.97, -154208.13, -40496.91, -75867.32, -108620.11, -51784.65, -48079.47, -54596.08, -26804.77, -30056.68, -74307.74, -68850.30, -31989.01, -58829.12, 0.00, 0.00, 0.00
250, -59156.01, -50608.01, -74529.97, -154208.13, -40496.91, -75867.32, -108620.11, -51784.65, -48028.24, -54613.31, -26813.78, -30069.42, -74325.45, -68878.80, -32010.60, -58894.16, 0.00, 0.00, 0.00
251, -59140.34, -50584.61, -74584.57, -154328.00, -40493.89, -75933.50, -108598.59, -51853.54, -48028.24, -54613.31, -26813.78, -30069.42, -74325.45, -68878.80, -32010.60, -58894.16, 0.00, 0.00, 0.00
252, -59140.34, -50584.61, -74584.57, -154328.00, -40493.89, -75933.50, -108598.59, -51853.54, -48170.31, -54603.88, -26787.98, -30024.67, -74364.68, -68907.85, -31990.35, -58892.93, 0.00, 0.00, 0.00
253, -59233.93, -50677.97, -74457.52, -154349.91, -40571.90, -75888.22, -108712.82, -51779.76, -48170.31, -54603.88, -26787.98, -30024.67, -74364.68, -68907.85, -31990.35, -58892.93, 0.00, 0.00, 0.00
254, -59233.93, -50677.97, -74457.52, -154349.91, -40571.90, -75888.22, -108712.82, -51779.76, -48084.34, -54621.87, -26776.43, -30011.62, -74405.58, -68949.81, -32022.34, -58861.75, 0.00, 0.00, 0.00
255, -59142.49, -50591.72, -74535.71, -154488.61, -40533.08, -75986.77, -108621.72, -51779.85, -48084.34, -54621.87, -26776.43, -30011.62, -74405.58, -68949.81, -32022.34, -58861.75, 0.00, 0.00, 0.00
0, -59142.49, -50591.72, -74535.71, -154488.61, -40533.08, -75986.77, -108621.72, -51779.85, -48160.79, -54624.82, -26770.91, -29987.19, -74356.23, -68911.14, -32006.74, -58844.18, 0.94, 0.00, 0.31
1, -59246.14, -50702.70, -74416.45, -154540.56, -40567.05, -75929.37, -108711.82, -51765.10, -48160.79, -54624.82, -26770.91, -29987.19, -74356.23, -68911.14, -32006.74, -58844.18, 0.00, 0.00, 0.00
2, -59246.14, -50702.70, -74416.45, -154540.56, -40567.05, -75929.37, -108711.82, -51765.10, -48092.59, -54640.16, -26765.43, -29930.26, -74352.31, -68934.86, -32006.69, -58797.29, 0.00, 0.00, 0.00
3, -59140.55, -50592.95, -74482.70, -154684.03, -40497.18, -76004.58, -108589.82, -51858.97, -48092.59, -54640.16, -26765.43, -29930.26, -74352.31, -68934.86, -32006.69, -58797.29, 0.00, 0.00, 0.00
4, -59140.55, -50592.95, -74482.70, -154684.03, -40497.18, -76004.58, -108589.82, -51858.97, -48200.57, -54659.27, -26776.43, -29940.90, -74370.30, -68935.26, -32033.36, -58944.05, 0.00, 0.00, 0.00
5, -59330.45, -50777.77, -74375.00, -154710.91, -40577.85, -75972.19, -108788.69, -51833.45, -48200.57, -54659.27, -26776.43, -29940.90, -74370.30, -68935.26, -32033.36, -58944.05, 0.00, 0.00, 0.00
6, -59330.45, -50777.77, -74375.00, -154710.91, -40577.85, -75972.19, -108788.69, -51833.45, -48183.81, -54667.74, -26734.50, -29875.70, -74429.38, -69006.49, -32049.81, -58881.09, 0.00, 0.00, 0.00
7, -59212.70, -50657.03, -74426.27, -154829.41, -40543.65, -76077.78, -108667.20, -51821.02, -48183.81, -54667.74, -26734.50, -29875.70, -74429.38, -69006.49, -32049.81, -58881.09, 0.00, 0.00, 0.00
8, -59212.70, -50657.03, -74426.27, -154829.41, -40543.65, -76077.78, -108667.20, -51821.02, -48238.37, -54688.05, -26755.17, -29891.54, -74416.58, -68981.57, -32063.78, -58999.08, 0.00, 0.00, 0.00
9, -59323.99, -50771.56, -74336.38, -154868.66, -40602.70, -76051.70, -108775.81, -51725.67, -48238.37, -54688.05, -26755.17, -29891.54, -74416.58, -68981.57, -32063.78, -58999.08, 0.00, 0.00, 0.00
10, -59323.99, -50771.56, -74336.38, -154868.66, -40602.70, -76051.70, -108775.81, -51725.67, -48169.46, -54684.50, -26737.80, -29849.64, -74423.39, -69002.78, -32040.20, -58840.23, 0.80, 0.05, 0.34
11, -59199.58, -50653.43, -74413.83, -155026.91, -40572.44, -76123.60, -108649.57, -51668.58, -48169.46, -54684.50, -26737.80, -29849.64, -74423.39, -69002.78, -32040.20, -58840.23, 0.00, 0.00, 0.00
12, -59199.58, -50653.43, -74413.83, -155026.91, -40572.44, -76123.60, -108649.57, -51668.58, -48237.45, -54730.08, -26885.79, -30142.82, -74407.73, -68992.03, -32103.50, -59014.75, 0.00, 0.00, 0.00
13, -59368.02, -50817.94, -74363.70, -155099.17, -40650.20, -76088.55, -108820.49, -51557.70, -48237.45, -54730.08, -26885.79, -30142.82, -74407.73, -68992.03, -32103.50, -59014.75, 0.00, 0.00, 0.00
14, -59368.02, -50817.94, -74363.70, -155099.17, -40650.20, -76088.55, -108820.49, -51557.70, -48234.73, -54722.90, -26872.45, -30147.45, -74435.91, -69031.10, -32062.53, -58804.02, 0.00, 0.00, 0.00
15, -59215.65, -50665.59, -74411.44, -155234.52, -40598.97, -76149.20, -108680.34, -51414.11, -48234.73, -54722.90, -26872.45, -30147.45, -74435.91, -69031.10, -32062.53, -58804.02, 0.00, 0.00, 0.00
16, -59215.65, -50665.59, -74411.44, -155234.52, -40598.97, -76149.20, -108680.34, -51414.11, -48238.59, -54754.66, -26930.03, -30202.28, -74394.85, -68992.41, -32080.23, -58894.77, 0.00, 0.00, 0.00
17, -59428.84, -50878.04, -74366.60, -155293.75, -40669.80, -76116.63, -108885.38, -51330.58, -48238.59, -54754.66, -26930.03, -30202.28, -74394.85, -68992.41, -32080.23, -58894.77, 0.00, 0.00, 0.00
18, -59428.84, -50878.04, -74366.60, -155293.75, -40669.80, -76116.63, -108885.38, -51330.58, -48344.96, -54763.96, -26913.20, -30265.63, -74499.10, -69130.48, -32090.09, -58743.42, 0.00, 0.00, 0.00
19, -59284.56, -50739.62, -74403.66, -155433.33, -40662.45, -76179.64, -108755.27, -51106.05, -48344.96, -54763.96, -26913.20, -30265.63, -74499.10, -69130.48, -32090.09, -58743.42, 0.00, 0.00, 0.00
20, -59284.56, -50739.62, -74403.66, -155433.33, -40662.45, -76179.64, -108755.27, -51106.05, -48236.70, -54817.00, -27018.86, -30446.09, -74435.77, -69064.48, -32147.69, -58848.12, 0.93, 0.09, 0.34
21, -59390.41, -50838.04, -74414.21, -155564.97, -40643.00, -76177.73, -108844.48, -50887.84, -48236.70, -54817.00, -27018.86, -30446.09, -74435.77, -69064.48, -32147.69, -58848.12, 0.00, 0.00, 0.00
22, -59390.41, -50838.04, -74414.21, -155564.97, -40643.00, -76177.73, -108844.48, -50887.84, -48371.41, -54802.21, -26958.59, -30371.73, -74475.65, -69122.39, -32122.50, -58749.73, 0.00, 0.00, 0.00
23, -59372.24, -50819.53, -74386.07, -155661.88, -40666.41, -76241.06, -108825.39, -50694.45, -48371.41, -54802.21, -26958.59, -30371.73, -74475.65, -69122.39, -32122.50, -58749.73, 0.00, 0.00, 0.00
24, -59372.24, -50819.53, -74386.07, -155661.88, -40666.41, -76241.06, -108825.39, -50694.45, -48319.78, -54847.65, -27003.97, -30405.26, -74490.77, -69124.89, -32197.15, -58891.70, 0.00, 0.00, 0.00
25, -59472.04, -50921.63, -74398.85, -155773.97, -40650.00, -76264.44, -108907.42, -50502.22, -48319.78, -54847.65, -27003.97, -30405.26, -74490.77, -69124.89, -32197.15, -58891.70, 0.00, 0.00, 0.00
26, -59472.04, -50921.63, -74398.85, -155773.97, -40650.00, -76264.44, -108907.42, -50502.22, -48489.14, -54840.79, -26927.84, -30274.83, -74559.67, -69205.06, -32199.59, -58816.71, 0.00, 0.00, 0.00
27, -59487.96, -50935.98, -74341.90, -155859.30, -40733.41, -76299.69, -108951.70, -50275.51, -48489.14, -54840.79, -26927.84, -30274.83, -74559.67, -69205.06, -32199.59, -58816.71, 0.00, 0.00, 0.00
28, -59487.96, -50935.98, -74341.90, -155859.30, -40733.41, -76299.69, -108951.70, -50275.51, -48417.77, -54924.14, -26987.74, -30297.52, -74595.44, -69233.56, -32301.15, -58951.98, 0.00, 0.00, 0.00
29, -59551.10, -51003.59, -74384.81, -155989.80, -40776.64, -76366.34, -108994.84, -50042.16, -48417.77, -54924.14, -26987.74, -30297.52, -74595.44, -69233.56, -32301.15, -58951.98, 0.00, 0.00, 0.00
30, -59551.10, -51003.59, -74384.81, -155989.80, -40776.64, -76366.34, -108994.84, -50042.16, -48564.33, -54933.63, -26936.58, -30172.22, -74645.44, -69287.55, -32286.20, -58889.85, 0.80, 0.08, 0.36
31, -59560.16, -51009.61, -74325.72, -156058.91, -40859.88, -76377.90, -109008.72, -49874.90, -48564.33, -54933.63, -26936.58, -30172.22, -74645.44, -69287.55, -32286.20, -58889.85, 0.00, 0.00, 0.00
32, -59560.16, -51009.61, -74325.72, -156058.91, -40859.88, -76377.90, -109008.72, -49874.90, -48475.07, -55014.28, -27021.96, -30205.88, -74659.49, -69289.66, -32361.93, -59050.33, 0.00, 0.00, 0.00
33, -59597.30, -51049.41, -74390.29, -156180.11, -40859.23, -76428.08, -109046.38, -49766.56, -48475.07, -55014.28, -27021.96, -30205.88, -74659.49, -69289.66, -32361.93, -59050.33, 0.00, 0.00, 0.00
34, -59597.30, -51049.41, -74390.29, -156180.11, -40859.23, -76428.08, -109046.38, -49766.56, -48645.57, -55033.66, -27017.54, -30123.98, -74722.52, -69332.34, -32335.33, -59027.07, 0.00, 0.00, 0.00
35, -59657.95, -51112.07, -74311.63, -156227.58, -40947.30, -76445.49, -109111.18, -49587.88, -48645.57, -55033.66, -27017.54, -30123.98, -74722.52, -69332.34, -32335.33, -59027.07, 0.00, 0.00, 0.00
36, -59657.95, -51112.07, -74311.63, -156227.58, -40947.30, -76445.49, -109111.18, -49587.88, -48538.60, -55123.96, -27114.99, -30153.78, -74746.17, -69359.54, -32398.90, -59209.75, 0.00, 0.00, 0.00
37, -59636.20, -51091.10, -74404.35, -156388.72, -40947.32, -76586.71, -109089.83, -49462.46, -48538.60, -55123.96, -27114.99, -30153.78, -74746.17, -69359.54, -32398.90, -59209.75, 0.00, 0.00, 0.00
38, -59636.20, -51091.10, -74404.35, -156388.72, -40947.32, -76586.71, -109089.83, -49462.46, -48690.61, -55149.73, -27126.93, -30070.56, -74778.54, -69385.91, -32390.52, -59252.75, 0.00, 0.00, 0.00
39, -59739.93, -51193.61, -74350.75, -156450.50, -41052.04, -76573.77, -109201.81, -49301.18, -48690.61, -55149.73, -27126.93, -30070.56, -74778.54, -69385.91, -32390.52, -59252.75, 0.00, 0.00, 0.00
40, -59739.93, -51193.61, -74350.75, -156450.50, -41052.04, -76573.77, -109201.81, -49301.18, -48646.92, -55221.44, -27170.67, -30017.54, -74815.06, -69437.97, -32461.33, -59369.92, 0.79, 0.09, 0.40
41, -59736.42, -51182.34, -74490.96, -156602.94, -41055.91, -76659.64, -109196.74, -49261.19, -48646.92, -55221.44, -27170.67, -30017.54, -74815.06, -69437.97, -32461.33, -59369.92, 0.00, 0.00, 0.00
42, -59736.42, -51182.34, -74490.96, -156602.94, -41055.91, -76659.64, -109196.74, -49261.19, -48807.31, -55247.09, -27128.49, -29851.51, -74846.11, -69481.36, -32472.28, -59406.51, 0.00, 0.00, 0.00
43, -59873.62, -51328.72, -74415.95, -156654.44, -41166.59, -76684.54, -109337.20, -49197.08, -48807.31, -55247.09, -27128.49, -29851.51, -74846.11, -69481.36, -32472.28, -59406.51, 0.00, 0.00, 0.00
44, -59873.62, -51328.72, -74415.95, -156654.44, -41166.59, -76684.54, -109337.20, -49197.08, -48786.05, -55311.85, -27074.80, -29673.62, -74891.53, -69571.79, -32561.33, -59538.27, 0.00, 0.00, 0.00
45, -59853.59, -51308.09, -74505.41, -156781.97, -41179.94, -76864.07, -109310.66, -49190.15, -48786.05, -55311.85, -27074.80, -29673.62, -74891.53, -69571.79, -32561.33, -59538.27, 0.00, 0.00, 0.00
46, -59853.59, -51308.09, -74505.41, -156781.97, -41179.94, -76864.07, -109310.66, -49190.15, -48925.93, -55346.38, -27004.28, -29501.98, -74931.94, -69598.77, -32608.33, -59672.25, 0.00, 0.00, 0.00
47, -60014.75, -51472.20, -74401.91, -156814.94, -41283.92, -76857.92, -109481.99, -49118.07, -48925.93, -55346.38, -27004.28, -29501.98, -74931.94, -69598.77, -32608.33, -59672.25, 0.00, 0.00, 0.00
48, -60014.75, -51472.20, -74401.91, -156814.94, -41283.92, -76857.92, -109481.99, -49118.07, -48912.50, -55402.30, -26888.52, -29246.56, -74988.63, -69676.13, -32684.62, -59803.57, 0.00, 0.00, 0.00
49, -59947.78, -51403.51, -74495.26, -156955.83, -41284.23, -76959.76, -109426.63, -49079.80, -48912.50, -55402.30, -26888.52, -29246.56, -74988.63, -69676.13, -32684.62, -59803.57, 0.00, 0.00, 0.00
50, -59947.78, -51403.51, -74495.26, -156955.83, -41284.23, -76959.76, -109426.63, -49079.80, -49045.58, -55460.15, -26822.85, -29046.72, -75018.71, -69703.94, -32730.78, -59950.13, 0.85, 0.07, 0.41
51, -60163.61, -51609.53, -74443.64, -157007.67, -41405.04, -76945.88, -109633.70, -48929.98, -49045.58, -55460.15, -26822.85, -29046.72, -75018.71, -69703.94, -32730.78, -59950.13, 0.00, 0.00, 0.00
52, -60163.61, -51609.53, -74443.64, -157007.67, -41405.04, -76945.88, -109633.70, -48929.98, -49079.89, -55542.90, -26727.57, -28802.08, -75127.67, -69822.35, -32794.63, -59982.40, 0.00, 0.00, 0.00
53, -60085.33, -51527.50, -74566.94, -157181.50, -41438.99, -77057.86, -109560.91, -48881.23, -49079.89, -55542.90, -26727.57, -28802.08, -75127.67, -69822.35, -32794.63, -59982.40, 0.00, 0.00, 0.00
54, -60085.33, -51527.50, -74566.94, -157181.50, -41438.99, -77057.86, -109560.91, -48881.23, -49091.80, -55618.65, -26678.10, -28627.22, -75116.41, -69805.75, -32843.54, -60081.96, 0.00, 0.00, 0.00
55, -59929.09, -51388.87, -74588.26, -157409.88, -41363.58, -76983.05, -109424.30, -48670.65, -49091.80, -55618.65, -26678.10, -28627.22, -75116.41, -69805.75, -32843.54, -60081.96, 0.00, 0.00, 0.00
56, -59929.09, -51388.87, -74588.26, -157409.88, -41363.58, -76983.05, -109424.30, -48670.65, -48607.00, -55603.43, -26687.67, -28534.30, -74872.10, -69565.55, -32766.70, -59871.52, 0.00, 0.00, 0.00
57, -59582.33, -51036.63, -74847.48, -157827.41, -41053.54, -76970.51, -109071.63, -48780.42, -48607.00, -55603.43, -26687.67, -28534.30, -74872.10, -69565.55, -32766.70, -59871.52, 0.00, 0.00, 0.00
58, -59582.33, -51036.63, -74847.48, -157827.41, -41053.54, -76970.51, -109071.63, -48780.42, -48609.77, -55606.18, -26718.92, -28534.95, -74728.23, -69408.71, -32728.50, -60288.71, 0.00, 0.00, 0.00
59, -59671.94, -51131.11, -74850.98, -158077.66, -41007.98, -76855.35, -109157.31, -48874.70, -48609.77, -55606.18, -26718.92, -28534.95, -74728.23, -69408.71, -32728.50, -60288.71, 0.00, 0.00, 0.00
60, -59671.94, -51131.11, -74850.98, -158077.66, -41007.98, -76855.35, -109157.31, -48874.70, -48566.94, -55593.73, -26662.90, -28456.21, -74730.38, -69410.16, -32684.96, -60430.20, 0.74, 0.07, 0.41
61, -59553.27, -51011.20, -74919.24, -158414.94, -40964.82, -76833.11, -109034.29, -48986.93, -48566.94, -55593.73, -26662.90, -28456.21, -74730.38, -69410.16, -32684.96, -60430.20, 0.00, 0.00, 0.00
62, -59553.27, -51011.20, -74919.24, -158414.94, -40964.82, -76833.11, -109034.29, -48986.93, -48571.48, -55547.68, -26612.84, -28454.75, -74697.00, -69372.34, -32687.23, -60772.65, 0.00, 0.00, 0.00
63, -59635.32, -51094.59, -74873.09, -158673.13, -40987.96, -76629.91, -109114.20, -48983.54, -48571.48, -55547.68, -26612.84, -28454.75, -74697.00, -69372.34, -32687.23, -60772.65, 0.00, 0.00, 0.00
64, -59635.32, -51094.59, -74873.09, -158673.13, -40987.96, -76629.91, -109114.20, -48983.54, -48569.98, -55382.35, -26391.89, -28276.79, -74679.97, -69388.15, -32614.01, -60797.95, 0.00, 0.00, 0.00
65, -59530.96, -50987.48, -74996.41, -158934.28, -40998.53, -76468.00, -109010.70, -49231.17, -48569.98, -55382.35, -26391.89, -28276.79, -74679.97, -69388.15, -32614.01, -60797.95, 0.00, 0.00, 0.00
66, -59530.96, -50987.48, -74996.41, -158934.28, -40998.53, -76468.00, -109010.70, -49231.17, -48486.48, -55235.36, -26272.29, -28246.68, -74610.75, -69349.17, -32605.29, -61121.38, 0.00, 0.00, 0.00
67, -59550.01, -51005.23, -74985.90, -159185.03, -40946.67, -76361.29, -109021.05, -49301.66, -48486.48, -55235.36, -26272.29, -28246.68, -74610.75, -69349.17, -32605.29, -61121.38, 0.00, 0.00, 0.00
68, -59550.01, -51005.23, -74985.90, -159185.03, -40946.67, -76361.29, -109021.05, -49301.66, -48475.59, -55014.08, -26115.46, -28174.60, -74575.97, -69337.37, -32362.22, -61129.58, 0.00, 0.00, 0.00
69, -59412.10, -50868.19, -74997.09, -159490.67, -40918.49, -76411.41, -108892.78, -49348.80, -48475.59, -55014.08, -26115.46, -28174.60, -74575.97, -69337.37, -32362.22, -61129.58, 0.00, 0.00, 0.00
70, -59412.10, -50868.19, -74997.09, -159490.67, -40918.49, -76411.41, -108892.78, -49348.80, -48367.39, -54978.63, -26086.97, -28218.12, -74513.54, -69272.39, -32326.39, -61370.89, 0.74, 0.04, 0.48
71, -59472.54, -50924.98, -75005.45, -159735.03, -40868.40, -76379.10, -108950.52, -49394.29, -48367.39, -54978.63, -26086.97, -28218.12, -74513.54, -69272.39, -32326.39, -61370.89, 0.00, 0.00, 0.00
72, -59472.54, -50924.98, -75005.45, -159735.03, -40868.40, -76379.10, -108950.52, -49394.29, -48464.53, -54795.99, -25916.47, -28108.32, -74538.77, -69295.13, -32198.87, -61328.74, 0.00, 0.00, 0.00
73, -59399.78, -50853.39, -74931.07, -159930.34, -40840.59, -76451.13, -108891.82, -49501.33, -48464.53, -54795.99, -25916.47, -28108.32, -74538.77, -69295.13, -32198.87, -61328.74, 0.00, 0.00, 0.00
74, -59399.78, -50853.39, -74931.07, -159930.34, -40840.59, -76451.13, -108891.82, -49501.33, -48337.70, -54666.66, -25864.23, -28143.82, -74486.60, -69228.58, -32210.90, -61563.83, 0.00, 0.00, 0.00
75, -59377.03, -50835.73, -74885.90, -160081.05, -40751.52, -76514.63, -108851.54, -49634.98, -48337.70, -54666.66, -25864.23, -28143.82, -74486.60, -69228.58, -32210.90, -61563.83, 0.00, 0.00, 0.00
76, -59377.03, -50835.73, -74885.90, -160081.05, -40751.52, -76514.63, -108851.54, -49634.98, -48249.86, -54679.03, -25836.85, -28096.97, -74407.99, -69128.69, -32033.36, -61539.25, 0.00, 0.00, 0.00
77, -59056.86, -50517.67, -74843.59, -160258.73, -40542.13, -76443.50, -108547.09, -49866.32, -48249.86, -54679.03, -25836.85, -28096.97, -74407.99, -69128.69, -32033.36, -61539.25, 0.00, 0.00, 0.00
78, -59056.86, -50517.67, -74843.59, -160258.73, -40542.13, -76443.50, -108547.09, -49866.32, -47852.60, -54778.58, -26087.93, -28305.33, -74175.76, -68865.14, -31992.19, -61658.36, 0.00, 0.00, 0.00
79, -58836.36, -50292.94, -74963.44, -160529.64, -40254.29, -76309.30, -108312.66, -50248.75, -47852.60, -54778.58, -26087.93, -28305.33, -74175.76, -68865.14, -31992.19, -61658.36, 0.00, 0.00, 0.00
80, -58836.36, -50292.94, -74963.44, -160529.64, -40254.29, -76309.30, -108312.66, -50248.75, -47793.66, -54767.74, -26304.52, -28428.33, -74018.00, -68679.22, -31850.61, -61486.63, 0.86, -0.19, 0.46
81, -58742.33, -50207.43, -74947.09, -160699.56, -40152.79, -76103.20, -108222.77, -50552.54, -47793.66, -54767.74, -26304.52, -28428.33, -74018.00, -68679.22, -31850.61, -61486.63, 0.00, 0.00, 0.00
82, -58742.33, -50207.43, -74947.09, -160699.56, -40152.79, -76103.20, -108222.77, -50552.54, -47627.45, -54808.46, -26629.85, -28662.67, -73919.25, -68570.26, -31784.98, -61395.30, 0.00, 0.00, 0.00
83, -58714.30, -50175.17, -75011.06, -160867.78, -40060.80, -76010.88, -108191.72, -50818.39, -47627.45, -54808.46, -26629.85, -28662.67, -73919.25, -68570.26, -31784.98, -61395.30, 0.00, 0.00, 0.00
84, -58714.30, -50175.17, -75011.06, -160867.78, -40060.80, -76010.88, -108191.72, -50818.39, -47730.02, -54772.66, -26895.18, -28806.32, -73902.55, -68553.55, -31654.65, -61137.92, 0.00, 0.00, 0.00
85, -58712.93, -50169.67, -74884.87, -160914.50, -40059.20, -75871.43, -108183.69, -50957.93, -47730.02, -54772.66, -26895.18, -28806.32, -73902.55, -68553.55, -31654.65, -61137.92, 0.00, 0.00, 0.00
86, -58712.93, -50169.67, -74884.87, -160914.50, -40059.20, -75871.43, -108183.69, -50957.93, -47585.25, -54850.57, -27254.64, -29085.81, -73877.99, -68545.73, -31665.94, -61143.44, 0.00, 0.00, 0.00
87, -58668.75, -50132.99, -74913.08, -161037.61, -39972.16, -75826.59, -108131.95, -51112.80, -47585.25, -54850.57, -27254.64, -29085.81, -73877.99, -68545.73, -31665.94, -61143.44, 0.00, 0.00, 0.00
88, -58668.75, -50132.99, -74913.08, -161037.61, -39972.16, -75826.59, -108131.95, -51112.80, -47738.81, -54983.95, -27608.34, -29428.95, -73921.69, -68578.23, -31677.07, -61131.97, 0.00, 0.00, 0.00
89, -58820.89, -50282.01, -74726.62, -161043.48, -40075.07, -75697.55, -108279.31, -51163.10, -47738.81, -54983.95, -27608.34, -29428.95, -73921.69, -68578.23, -31677.07, -61131.97, 0.00, 0.00, 0.00
90, -58820.89, -50282.01, -74726.62, -161043.48, -40075.07, -75697.55, -108279.31, -51163.10, -47762.28, -54988.57, -27968.04, -30335.61, -74083.05, -68711.79, -31888.58, -61251.15, 0.94, -0.07, 0.50
91, -58899.50, -50359.13, -74698.48, -161122.03, -40150.35, -75676.50, -108356.11, -51221.41, -47762.28, -54988.57, -27968.04, -30335.61, -74083.05, -68711.79, -31888.58, -61251.15, 0.00, 0.00, 0.00
92, -58899.50, -50359.13, -74698.48, -161122.03, -40150.35, -75676.50, -108356.11, -51221.41, -48013.58, -54705.49, -28073.81, -30780.97, -74217.04, -68864.59, -32074.91, -61283.45, 0.00, 0.00, 0.00
93, -59133.80, -50595.00, -74466.69, -161070.16, -40343.89, -75563.96, -108592.35, -51266.94, -48013.58, -54705.49, -28073.81, -30780.97, -74217.04, -68864.59, -32074.91, -61283.45, 0.00, 0.00, 0.00
94, -59133.80, -50595.00, -74466.69, -161070.16, -40343.89, -75563.96, -108592.35, -51266.94, -48040.76, -54575.47, -28095.67, -30911.10, -74330.12, -69006.65, -32209.78, -61215.66, 0.00, 0.00, 0.00
95, -59122.02, -50586.45, -74401.47, -161111.06, -40404.00, -75653.55, -108576.37, -51340.41, -48040.76, -54575.47, -28095.67, -30911.10, -74330.12, -69006.65, -32209.78, -61215.66, 0.00, 0.00, 0.00
96, -59122.02, -50586.45, -74401.47, -161111.06, -40404.00, -75653.55, -108576.37, -51340.41, -48196.04, -54464.61, -27994.13, -30907.28, -74354.51, -69043.27, -32254.30, -61179.96, 0.00, 0.00, 0.00
97, -59295.96, -50760.81, -74145.77, -161022.14, -40526.06, -75625.38, -108758.13, -51368.38, -48196.04, -54464.61, -27994.13, -30907.28, -74354.51, -69043.27, -32254.30, -61179.96, 0.00, 0.00, 0.00
98, -59295.96, -50760.81, -74145.77, -161022.14, -40526.06, -75625.38, -108758.13, -51368.38, -48176.14, -54423.37, -27794.42, -30732.28, -74381.38, -69105.47, -32303.41, -61115.19, 0.00, 0.00, 0.00
99, -59181.63, -50645.41, -74126.20, -161087.20, -40512.91, -75783.45, -108658.55, -51501.05, -48176.14, -54423.37, -27794.42, -30732.28, -74381.38, -69105.47, -32303.41, -61115.19, 0.00, 0.00, 0.00
100, -59181.63, -50645.41, -74126.20, -161087.20, -40512.91, -75783.45, -108658.55, -51501.05, -48187.88, -54498.29, -27669.31, -30617.15, -74307.01, -69039.26, -32310.56, -61110.79, 0.85, -0.17, 0.41
101, -59247.48, -50708.77, -74005.44, -161162.36, -40549.35, -75604.75, -108731.20, -51706.42, -48187.88, -54498.29, -27669.31, -30617.15, -74307.01, -69039.26, -32310.56, -61110.79, 0.00, 0.00, 0.00
102, -59247.48, -50708.77, -74005.44, -161162.36, -40549.35, -75604.75, -108731.20, -51706.42, -48091.16, -54649.52, -27571.55, -30453.60, -74269.39, -69004.23, -32337.94, -61108.10, 0.00, 0.00, 0.00
103, -59016.00, -50478.93, -74153.79, -161386.67, -40411.84, -75602.25, -108487.41, -52153.68, -48091.16, -54649.52, -27571.55, -30453.60, -74269.39, -69004.23, -32337.94, -61108.10, 0.00, 0.00, 0.00
104, -59016.00, -50478.93, -74153.79, -161386.67, -40411.84, -75602.25, -108487.41, -52153.68, -47976.52, -54898.99, -27653.29, -30496.63, -74144.71, -68851.40, -32298.43, -61348.25, 0.00, 0.00, 0.00
105, -59038.33, -50485.88, -74221.38, -161575.61, -40291.97, -75525.49, -108514.97, -52657.64, -47976.52, -54898.99, -27653.29, -30496.63, -74144.71, -68851.40, -32298.43, -61348.25, 0.00, 0.00, 0.00
106, -59038.33, -50485.88, -74221.38, -161575.61, -40291.97, -75525.49, -108514.97, -52657.64, -47910.05, -55206.13, -27757.96, -30524.79, -74107.70, -68817.66, -32341.90, -61712.83, 0.00, 0.00, 0.00
107, -58864.17, -50322.83, -74476.23, -161901.17, -40245.70, -75496.19, -108352.11, -53217.00, -47910.05, -55206.13, -27757.96, -30524.79, -74107.70, -68817.66, -32341.90, -61712.83, 0.00, 0.00, 0.00
108, -58864.17, -50322.83, -74476.23, -161901.17, -40245.70, -75496.19, -108352.11, -53217.00, -47870.51, -55523.18, -27897.97, -30148.14, -73989.10, -68755.82, -32470.38, -62496.79, 0.00, 0.00, 0.00
109, -59025.93, -50490.38, -74639.42, -162184.77, -40309.18, -75504.16, -108488.45, -53672.53, -47870.51, -55523.18, -27897.97, -30148.14, -73989.10, -68755.82, -32470.38, -62496.79, 0.00, 0.00, 0.00
110, -59025.93, -50490.38, -74639.42, -162184.77, -40309.18, -75504.16, -108488.45, -53672.53, -47995.41, -55640.96, -27960.96, -29874.56, -74094.04, -68865.66, -32440.36, -62581.86, 0.86, -0.12, 0.49
111, -59028.07, -50493.62, -74769.16, -162398.06, -40358.75, -75659.71, -108494.83, -53881.58, -47995.41, -55640.96, -27960.96, -29874.56, -74094.04, -68865.66, -32440.36, -62581.86, 0.00, 0.00, 0.00
112, -59028.07, -50493.62, -74769.16, -162398.06, -40358.75, -75659.71, -108494.83, -53881.58, -48089.98, -55590.75, -28151.08, -30088.91, -74197.64, -68960.31, -32495.70, -62665.30, 0.00, 0.00, 0.00
113, -59303.82, -50766.75, -74726.22, -162476.45, -40497.18, -75753.75, -108767.50, -53928.19, -48089.98, -55590.75, -28151.08, -30088.91, -74197.64, -68960.31, -32495.70, -62665.30, 0.00, 0.00, 0.00
114, -59303.82, -50766.75, -74726.22, -162476.45, -40497.18, -75753.75, -108767.50, -53928.19, -48334.68, -55442.02, -28150.79, -30151.52, -74404.38, -69178.11, -32509.81, -62384.45, 0.00, 0.00, 0.00
115, -59379.26, -50845.07, -74645.05, -162490.05, -40646.60, -75969.64, -108844.66, -53901.50, -48334.68, -55442.02, -28150.79, -30151.52, -74404.38, -69178.11, -32509.81, -62384.45, 0.00, 0.00, 0.00
116, -59379.26, -50845.07, -74645.05, -162490.05, -40646.60, -75969.64, -108844.66, -53901.50, -48410.64, -55328.23, -28273.41, -30408.61, -74556.19, -69310.97, -32584.21, -62176.09, 0.00, 0.00, 0.00
117, -59608.68, -51071.77, -74460.70, -162398.45, -40741.51, -76100.31, -109078.74, -53728.52, -48410.64, -55328.23, -28273.41, -30408.61, -74556.19, -69310.97, -32584.21, -62176.09, 0.00, 0.00, 0.00
118, -59608.68, -51071.77, -74460.70, -162398.45, -40741.51, -76100.31, -109078.74, -53728.52, -48635.72, -54941.64, -28143.13, -30449.91, -74750.27, -69506.97, -32591.64, -61654.67, 0.00, 0.00, 0.00
119, -59673.66, -51139.34, -74230.68, -162253.78, -40890.50, -76253.13, -109155.99, -53510.36, -48635.72, -54941.64, -28143.13, -30449.91, -74750.27, -69506.97, -32591.64, -61654.67, 0.00, 0.00, 0.00
120, -59673.66, -51139.34, -74230.68, -162253.78, -40890.50, -76253.13, -109155.99, -53510.36, -48665.38, -54515.77, -27998.42, -30611.81, -74864.91, -69606.33, -32703.39, -61382.11, 0.91, -0.08, 0.55
121, -59847.62, -51305.43, -74003.12, -162081.09, -40988.58, -76274.23, -109323.88, -53310.12, -48665.38, -54515.77, -27998.42, -30611.81, -74864.91, -69606.33, -32703.39, -61382.11, 0.00, 0.00, 0.00
122, -59847.62, -51305.43, -74003.12, -162081.09, -40988.58, -76274.23, -109323.88, -53310.12, -48898.06, -54179.31, -27543.03, -30395.06, -74951.92, -69708.47, -32657.30, -60778.53, 0.00, 0.00, 0.00
123, -59932.00, -51395.31, -73716.23, -161846.56, -41145.11, -76432.19, -109404.03, -52989.39, -48898.06, -54179.31, -27543.03, -30395.06, -74951.92, -69708.47, -32657.30, -60778.53, 0.00, 0.00, 0.00
124, -59932.00, -51395.31, -73716.23, -161846.56, -41145.11, -76432.19, -109404.03, -52989.39, -48909.26, -54115.05, -27213.56, -30309.75, -75010.87, -69769.05, -32728.74, -60417.23, 0.00, 0.00, 0.00
125, -60085.55, -51550.41, -73510.55, -161634.20, -41215.27, -76579.40, -109548.66, -52703.11, -48909.26, -54115.05, -27213.56, -30309.75, -75010.87, -69769.05, -32728.74, -60417.23, 0.00, 0.00, 0.00
126, -60085.55, -51550.41, -73510.55, -161634.20, -41215.27, -76579.40, -109548.66, -52703.11, -49155.89, -54088.89, -26758.57, -29970.38, -75103.52, -69880.80, -32691.44, -59822.18, 0.00, 0.00, 0.00
127, -60174.40, -51636.60, -73226.19, -161380.42, -41384.68, -76637.16, -109651.20, -52401.81, -49155.89, -54088.89, -26758.57, -29970.38, -75103.52, -69880.80, -32691.44, -59822.18, 0.00, 0.00, 0.00
128, -60174.40, -51636.60, -73226.19, -161380.42, -41384.68, -76637.16, -109651.20, -52401.81, -49130.09, -54239.16, -26486.39, -29755.22, -75161.83, -69945.13, -32761.33, -59496.36, 0.00, 0.00, 0.00
129, -60282.32, -51738.92, -73091.52, -161221.56, -41470.24, -76783.98, -109734.37, -52090.11, -49130.09, -54239.16, -26486.39, -29755.22, -75161.83, -69945.13, -32761.33, -59496.36, 0.00, 0.00, 0.00
130, -60282.32, -51738.92, -73091.52, -161221.56, -41470.24, -76783.98, -109734.37, -52090.11, -49373.17, -54380.54, -26183.46, -29414.72, -75264.96, -70050.01, -32687.84, -59079.37, 0.90, -0.07, 0.43
131, -60421.55, -51884.61, -72858.88, -161020.55, -41648.05, -77019.88, -109881.04, -51598.33, -49373.17, -54380.54, -26183.46, -29414.72, -75264.96, -70050.01, -32687.84, -59079.37, 0.00, 0.00, 0.00
132, -60421.55, -51884.61, -72858.88, -161020.55, -41648.05, -77019.88, -109881.04, -51598.33, -49373.28, -54618.25, -26023.04, -29183.69, -75359.40, -70158.79, -32751.99, -58952.41, 0.00, 0.00, 0.00
133, -60374.96, -51841.81, -72874.77, -160956.19, -41666.00, -77133.79, -109828.09, -50985.80, -49373.28, -54618.25, -26023.04, -29183.69, -75359.40, -70158.79, -32751.99, -58952.41, 0.00, 0.00, 0.00
134, -60374.96, -51841.81, -72874.77, -160956.19, -41666.00, -77133.79, -109828.09, -50985.80, -49050.19, -54745.70, -25898.70, -28938.06, -75185.48, -70014.13, -32829.26, -58400.43, 0.00, 0.00, 0.00
135, -59800.57, -51263.55, -72963.47, -161106.67, -41318.14, -76983.70, -109274.41, -50154.25, -49050.19, -54745.70, -25898.70, -28938.06, -75185.48, -70014.13, -32829.26, -58400.43, 0.00, 0.00, 0.00
136, -59800.57, -51263.55, -72963.47, -161106.67, -41318.14, -76983.70, -109274.41, -50154.25, -48689.05, -54801.56, -25913.43, -28853.96, -74849.42, -69650.70, -32856.37, -58533.70, 0.00, 0.00, 0.00
137, -59661.03, -51118.32, -73192.77, -161321.34, -41132.89, -76927.82, -109147.63, -50021.44, -48689.05, -54801.56, -25913.43, -28853.96, -74849.42, -69650.70, -32856.37, -58533.70, 0.00, 0.00, 0.00
138, -59661.03, -51118.32, -73192.77, -161321.34, -41132.89, -76927.82, -109147.63, -50021.44, -48581.71, -54757.44, -25784.35, -28630.17, -74642.33, -69437.91, -32721.16, -58652.88, 0.00, 0.00, 0.00
139, -59463.86, -50928.61, -73310.61, -161501.23, -40981.59, -76757.52, -108955.27, -50008.85, -48581.71, -54757.44, -25784.35, -28630.17, -74642.33, -69437.91, -32721.16, -58652.88, 0.00, 0.00, 0.00
140, -59463.86, -50928.61, -73310.61, -161501.23, -40981.59, -76757.52, -108955.27, -50008.85, -48259.31, -54660.50, -25618.21, -28389.49, -74358.44, -69194.13, -32527.67, -58939.87, 0.85, -0.09, 0.50
141, -59196.29, -50661.93, -73680.42, -161817.75, -40701.68, -76700.91, -108669.77, -50418.36, -48259.31, -54660.50, -25618.21, -28389.49, -74358.44, -69194.13, -32527.67, -58939.87, 0.00, 0.00, 0.00
142, -59196.29, -50661.93, -73680.42, -161817.75, -40701.68, -76700.91, -108669.77, -50418.36, -48136.60, -54450.34, -25330.11, -28062.41, -74089.91, -68954.81, -32265.50, -59201.23, 0.00, 0.00, 0.00
143, -59097.38, -50570.77, -73869.12, -162065.23, -40511.15, -76409.55, -108559.06, -50860.72, -48136.60, -54450.34, -25330.11, -28062.41, -74089.91, -68954.81, -32265.50, -59201.23, 0.00, 0.00, 0.00
144, -59097.38, -50570.77, -73869.12, -162065.23, -40511.15, -76409.55, -108559.06, -50860.72, -47939.15, -54276.79, -25079.21, -28015.85, -73974.48, -68822.70, -32122.12, -59395.94, 0.00, 0.00, 0.00
145, -58962.58, -50440.60, -74191.54, -162372.78, -40340.20, -76261.04, -108425.45, -51258.89, -47939.15, -54276.79, -25079.21, -28015.85, -73974.48, -68822.70, -32122.12, -59395.94, 0.00, 0.00, 0.00
146, -58962.58, -50440.60, -74191.54, -162372.78, -40340.20, -76261.04, -108425.45, -51258.89, -47999.48, -54223.63, -24977.07, -28111.50, -73960.04, -68797.48, -32031.90, -59471.64, 0.00, 0.00, 0.00
147, -59107.64, -50588.66, -74294.27, -162562.22, -40359.02, -76086.30, -108565.57, -51436.32, -47999.48, -54223.63, -24977.07, -28111.50, -73960.04, -68797.48, -32031.90, -59471.64, 0.00, 0.00, 0.00
148, -59107.64, -50588.66, -74294.27, -162562.22, -40359.02, -76086.30, -108565.57, -51436.32, -48064.54, -54307.52, -25032.14, -28013.80, -74089.66, -68934.09, -32026.00, -59449.16, 0.00, 0.00, 0.00
149, -59140.84, -50624.09, -74474.94, -162757.97, -40387.93, -76157.87, -108593.16, -51658.77, -48064.54, -54307.52, -25032.14, -28013.80, -74089.66, -68934.09, -32026.00, -59449.16, 0.00, 0.00, 0.00
150, -59140.84, -50624.09, -74474.94, -162757.97, -40387.93, -76157.87, -108593.16, -51658.77, -48155.18, -54450.66, -25266.84, -28068.00, -74196.41, -69007.68, -31978.19, -59402.17, 0.84, -0.07, 0.54
151, -59232.59, -50708.53, -74434.77, -162827.58, -40426.21, -76182.12, -108686.88, -51600.41, -48155.18, -54450.66, -25266.84, -28068.00, -74196.41, -69007.68, -31978.19, -59402.17, 0.00, 0.00, 0.00
152, -59232.59, -50708.53, -74434.77, -162827.58, -40426.21, -76182.12, -108686.88, -51600.41, -48184.82, -54565.08, -25534.95, -28135.79, -74294.38, -69093.48, -31901.01, -59216.54, 0.00, 0.00, 0.00
153, -59250.88, -50734.55, -74508.71, -162922.31, -40482.90, -76332.34, -108715.77, -51679.04, -48184.82, -54565.08, -25534.95, -28135.79, -74294.38, -69093.48, -31901.01, -59216.54, 0.00, 0.00, 0.00
154, -59250.88, -50734.55, -74508.71, -162922.31, -40482.90, -76332.34, -108715.77, -51679.04, -48341.90, -54725.90, -25861.39, -28275.83, -74392.28, -69181.58, -31904.57, -59177.74, 0.00, 0.00, 0.00
155, -59478.35, -50961.59, -74439.71, -162945.27, -40694.52, -76555.70, -108940.86, -51227.31, -48341.90, -54725.90, -25861.39, -28275.83, -74392.28, -69181.58, -31904.57, -59177.74, 0.00, 0.00, 0.00
156, -59478.35, -50961.59, -74439.71, -162945.27, -40694.52, -76555.70, -108940.86, -51227.31, -48402.61, -54854.35, -26096.69, -28353.61, -74508.94, -69308.58, -31746.49, -58884.24, 0.00, 0.00, 0.00
157, -59437.00, -50915.24, -74538.15, -163112.34, -40744.46, -76906.49, -108902.95, -50401.66, -48402.61, -54854.35, -26096.69, -28353.61, -74508.94, -69308.58, -31746.49, -58884.24, 0.00, 0.00, 0.00
158, -59437.00, -50915.24, -74538.15, -163112.34, -40744.46, -76906.49, -108902.95, -50401.66, -48454.09, -54960.21, -26362.50, -28588.84, -74566.83, -69341.55, -31932.64, -59041.68, 0.00, 0.00, 0.00
159, -59528.46, -51012.00, -74524.02, -163179.27, -40739.81, -76762.39, -108986.90, -50190.17, -48454.09, -54960.21, -26362.50, -28588.84, -74566.83, -69341.55, -31932.64, -59041.68, 0.00, 0.00, 0.00
160, -59528.46, -51012.00, -74524.02, -163179.27, -40739.81, -76762.39, -108986.90, -50190.17, -48436.09, -54896.75, -26403.15, -28596.40, -74546.26, -69350.53, -32081.35, -58898.07, 0.84, -0.03, 0.48
161, -59404.05, -50888.55, -74569.84, -163285.67, -40709.61, -76684.25, -108869.35, -50372.07, -48436.09, -54896.75, -26403.15, -28596.40, -74546.26, -69350.53, -32081.35, -58898.07, 0.00, 0.00, 0.00
162, -59404.05, -50888.55, -74569.84, -163285.67, -40709.61, -76684.25, -108869.35, -50372.07, -48338.46, -54829.09, -26421.19, -28620.87, -74447.24, -69252.50, -32147.17, -58945.26, 0.00, 0.00, 0.00
163, -59365.74, -50848.12, -74600.06, -163366.72, -40635.74, -76533.22, -108845.44, -50431.95, -48338.46, -54829.09, -26421.19, -28620.87, -74447.24, -69252.50, -32147.17, -58945.26, 0.00, 0.00, 0.00
164, -59365.74, -50848.12, -74600.06, -163366.72, -40635.74, -76533.22, -108845.44, -50431.95, -48302.79, -54725.50, -26295.37, -28451.33, -74359.65, -69172.74, -32068.43, -58775.52, 0.00, 0.00, 0.00
165, -59223.00, -50709.02, -74684.87, -163483.38, -40575.48, -76468.69, -108716.80, -50584.48, -48302.79, -54725.50, -26295.37, -28451.33, -74359.65, -69172.74, -32068.43, -58775.52, 0.00, 0.00, 0.00
166, -59223.00, -50709.02, -74684.87, -163483.38, -40575.48, -76468.69, -108716.80, -50584.48, -48126.48, -54674.89, -26245.51, -28407.46, -74213.55, -69038.88, -32025.38, -58897.20, 0.00, 0.00, 0.00
167, -59153.06, -50632.78, -74806.21, -163639.55, -40463.92, -76338.78, -108630.66, -50714.72, -48126.48, -54674.89, -26245.51, -28407.46, -74213.55, -69038.88, -32025.38, -58897.20, 0.00, 0.00, 0.00
168, -59153.06, -50632.78, -74806.21, -163639.55, -40463.92, -76338.78, -108630.66, -50714.72, -48120.64, -54527.14, -26062.89, -28259.09, -74118.52, -68948.87, -31904.37, -58793.31, 0.00, 0.00, 0.00
169, -59117.30, -50598.71, -74910.91, -163789.73, -40453.50, -76271.68, -108597.71, -50949.48, -48120.64, -54527.14, -26062.89, -28259.09, -74118.52, -68948.87, -31904.37, -58793.31, 0.80, -0.06, 0.42
170, -59117.30, -50598.71, -74910.91, -163789.73, -40453.50, -76271.68, -108597.71, -50949.48, -48042.97, -54489.39, -26004.62, -28212.48, -74094.00, -68923.34, -31908.59, -58960.59, 0.00, 0.00, 0.00
171, -59113.95, -50599.16, -75087.35, -163992.70, -40410.23, -76261.60, -108595.34, -51009.12, -48042.97, -54489.39, -26004.62, -28212.48, -74094.00, -68923.34, -31908.59, -58960.59, 0.00, 0.00, 0.00
172, -59113.95, -50599.16, -75087.35, -163992.70, -40410.23, -76261.60, -108595.34, -51009.12, -48134.05, -54415.79, -25886.92, -28020.91, -74136.46, -68956.45, -31884.11, -58938.57, 0.00, 0.00, 0.00
173, -59117.16, -50598.94, -75199.24, -164175.64, -40464.66, -76214.04, -108588.21, -51163.19, -48134.05, -54415.79, -25886.92, -28020.91, -74136.46, -68956.45, -31884.11, -58938.57, 0.00, 0.00, 0.00
174, -59117.16, -50598.94, -75199.24, -164175.64, -40464.66, -76214.04, -108588.21, -51163.19, -48042.46, -54408.88, -25918.88, -28048.24, -74129.06, -68979.96, -32016.10, -59123.29, 0.00, 0.00, 0.00
175, -59087.01, -50569.14, -75407.14, -164410.84, -40398.25, -76216.41, -108559.78, -51191.66, -48042.46, -54408.88, -25918.88, -28048.24, -74129.06, -68979.96, -32016.10, -59123.29, 0.00, 0.00, 0.00
176, -59087.01, -50569.14, -75407.14, -164410.84, -40398.25, -76216.41, -108559.78, -51191.66, -48076.75, -54419.81, -25938.33, -28051.19, -74105.89, -68961.70, -31995.65, -59014.08, 0.00, 0.00, 0.00
177, -59067.66, -50558.28, -75510.59, -164594.69, -40404.44, -76172.06, -108554.02, -51210.59, -48076.75, -54419.81, -25938.33, -28051.19, -74105.89, -68961.70, -31995.65, -59014.08, 0.00, 0.00, 0.00
178, -59067.66, -50558.28, -75510.59, -164594.69, -40404.44, -76172.06, -108554.02, -51210.59, -48041.43, -54512.46, -26064.81, -28194.89, -74104.93, -68966.46, -32055.04, -59254.34, 0.00, 0.00, 0.00
179, -59161.80, -50653.28, -75645.59, -164749.67, -40422.37, -76149.89, -108637.79, -51474.10, -48041.43, -54512.46, -26064.81, -28194.89, -74104.93, -68966.46, -32055.04, -59254.34, 0.80, -0.07, 0.52
180, -59161.80, -50653.28, -75645.59, -164749.67, -40422.37, -76149.89, -108637.79, -51474.10, -48197.33, -54529.36, -26085.22, -28206.85, -74176.18, -69036.60, -32089.06, -59266.92, 0.00, 0.00, 0.00
181, -59194.73, -50676.50, -75595.97, -164804.70, -40454.80, -76101.16, -108674.71, -51662.59, -48197.33, -54529.36, -26085.22, -28206.85, -74176.18, -69036.60, -32089.06, -59266.92, 0.00, 0.00, 0.00
182, -59194.73, -50676.50, -75595.97, -164804.70, -40454.80, -76101.16, -108674.71, -51662.59, -48148.56, -54652.23, -26233.15, -28324.35, -74217.45, -69078.51, -32088.03, -59331.23, 0.00, 0.00, 0.00
183, -59203.60, -50684.34, -75673.35, -164922.61, -40453.80, -76232.95, -108679.99, -51782.48, -48148.56, -54652.23, -26233.15, -28324.35, -74217.45, -69078.51, -32088.03, -59331.23, 0.00, 0.00, 0.00
184, -59203.60, -50684.34, -75673.35, -164922.61, -40453.80, -76232.95, -108679.99, -51782.48, -48230.05, -54779.52, -26393.88, -28432.94, -74247.40, -69097.53, -31978.37, -59133.04, 0.00, 0.00, 0.00
185, -59264.87, -50749.34, -75577.95, -164953.72, -40481.62, -76205.99, -108730.51, -51780.74, -48230.05, -54779.52, -26393.88, -28432.94, -74247.40, -69097.53, -31978.37, -59133.04, 0.00, 0.00, 0.00
186, -59264.87, -50749.34, -75577.95, -164953.72, -40481.62, -76205.99, -108730.51, -51780.74, -48205.94, -54970.34, -26656.31, -28646.08, -74314.16, -69152.27, -32038.68, -59140.37, 0.00, 0.00, 0.00
187, -59245.96, -50727.86, -75635.46, -165050.50, -40460.25, -76232.32, -108716.22, -51817.82, -48205.94, -54970.34, -26656.31, -28646.08, -74314.16, -69152.27, -32038.68, -59140.37, 0.00, 0.00, 0.00
188, -59245.96, -50727.86, -75635.46, -165050.50, -40460.25, -76232.32, -108716.22, -51817.82, -48302.01, -55090.39, -26905.96, -28841.10, -74350.86, -69188.95, -32096.54, -59069.91, 0.00, 0.00, 0.00
189, -59361.56, -50843.89, -75529.78, -165065.89, -40536.63, -76147.65, -108822.17, -51850.50, -48302.01, -55090.39, -26905.96, -28841.10, -74350.86, -69188.95, -32096.54, -59069.91, 0.81, -0.05, 0.47
190, -59361.56, -50843.89, -75529.78, -165065.89, -40536.63, -76147.65, -108822.17, -51850.50, -48337.46, -55120.88, -27086.76, -29020.81, -74434.48, -69267.95, -32221.27, -59195.17, 0.00, 0.00, 0.00
191, -59386.73, -50869.30, -75573.68, -165129.08, -40596.69, -76251.14, -108831.04, -51968.70, -48337.46, -55120.88, -27086.76, -29020.81, -74434.48, -69267.95, -32221.27, -59195.17, 0.00, 0.00, 0.00
192, -59386.73, -50869.30, -75573.68, -165129.08, -40596.69, -76251.14, -108831.04, -51968.70, -48423.24, -55061.13, -27147.69, -29115.25, -74446.51, -69290.49, -32265.88, -59195.82, 0.00, 0.00, 0.00
193, -59424.57, -50905.52, -75470.64, -165136.78, -40653.33, -76229.80, -108892.38, -51934.32, -48423.24, -55061.13, -27147.69, -29115.25, -74446.51, -69290.49, -32265.88, -59195.82, 0.00, 0.00, 0.00
194, -59424.57, -50905.52, -75470.64, -165136.78, -40653.33, -76229.80, -108892.38, -51934.32, -48307.04, -54996.31, -27142.26, -29140.57, -74406.74, -69270.76, -32258.53, -59141.71, 0.00, 0.00, 0.00
195, -59287.38, -50765.35, -75577.10, -165262.67, -40603.08, -76342.05, -108764.37, -52029.14, -48307.04, -54996.31, -27142.26, -29140.57, -74406.74, -69270.76, -32258.53, -59141.71, 0.00, 0.00, 0.00
196, -59287.38, -50765.35, -75577.10, -165262.67, -40603.08, -76342.05, -108764.37, -52029.14, -48340.56, -54902.03, -27085.62, -29125.22, -74334.05, -69198.49, -32219.23, -59196.16, 0.00, 0.00, 0.00
197, -59367.91, -50846.77, -75505.24, -165291.45, -40605.27, -76288.83, -108857.88, -52045.30, -48340.56, -54902.03, -27085.62, -29125.22, -74334.05, -69198.49, -32219.23, -59196.16, 0.00, 0.00, 0.00
198, -59367.91, -50846.77, -75505.24, -165291.45, -40605.27, -76288.83, -108857.88, -52045.30, -48248.99, -54815.13, -26966.48, -29020.28, -74311.55, -69182.49, -32169.86, -59145.98, 0.00, 0.00, 0.00
199, -59187.73, -50674.53, -75619.86, -165422.66, -40487.59, -76346.56, -108658.66, -52084.23, -48248.99, -54815.13, -26966.48, -29020.28, -74311.55, -69182.49, -32169.86, -59145.98, 0.83, -0.05, 0.49
200, -59187.73, -50674.53, -75619.86, -165422.66, -40487.59, -76346.56, -108658.66, -52084.23, -48208.73, -54755.60, -26917.74, -29003.20, -74213.20, -69076.41, -32127.75, -59216.25, 0.00, 0.00, 0.00
201, -59257.56, -50748.63, -75582.09, -165478.94, -40475.19, -76238.09, -108724.47, -52097.00, -48208.73, -54755.60, -26917.74, -29003.20, -74213.20, -69076.41, -32127.75, -59216.25, 0.00, 0.00, 0.00
202, -59257.56, -50748.63, -75582.09, -165478.94, -40475.19, -76238.09, -108724.47, -52097.00, -48165.35, -54711.23, -26829.24, -28913.99, -74193.59, -69080.05, -32089.79, -59163.28, 0.00, 0.00, 0.00
203, -59115.69, -50621.49, -75685.59, -165614.50, -40433.77, -76264.09, -108579.09, -52146.33, -48165.35, -54711.23, -26829.24, -28913.99, -74193.59, -69080.05, -32089.79, -59163.28, 0.00, 0.00, 0.00
204, -59115.69, -50621.49, -75685.59, -165614.50, -40433.77, -76264.09, -108579.09, -52146.33, -48137.48, -54727.89, -26865.05, -28975.28, -74149.74, -69020.04, -32091.31, -59258.45, 0.00, 0.00, 0.00
205, -59229.39, -50739.29, -75665.97, -165681.86, -40443.49, -76184.27, -108667.49, -52139.27, -48137.48, -54727.89, -26865.05, -28975.28, -74149.74, -69020.04, -32091.31, -59258.45, 0.00, 0.00, 0.00
206, -59229.39, -50739.29, -75665.97, -165681.86, -40443.49, -76184.27, -108667.49, -52139.27, -48164.63, -54726.77, -26847.75, -28948.19, -74190.71, -69067.52, -32061.16, -59166.72, 0.00, 0.00, 0.00
207, -59116.27, -50624.78, -75736.78, -165797.55, -40421.81, -76226.80, -108567.54, -52151.47, -48164.63, -54726.77, -26847.75, -28948.19, -74190.71, -69067.52, -32061.16, -59166.72, 0.00, 0.00, 0.00
208, -59116.27, -50624.78, -75736.78, -165797.55, -40421.81, -76226.80, -108567.54, -52151.47, -48124.02, -54781.15, -26958.30, -29089.21, -74156.94, -69029.90, -32090.20, -59258.88, 0.00, 0.00, 0.00
209, -59224.66, -50731.39, -75721.49, -165861.92, -40424.54, -76168.20, -108677.40, -52130.59, -48124.02, -54781.15, -26958.30, -29089.21, -74156.94, -69029.90, -32090.20, -59258.88, 0.83, -0.05, 0.48
210, -59224.66, -50731.39, -75721.49, -165861.92, -40424.54, -76168.20, -108677.40, -52130.59, -48186.96, -54796.42, -26985.66, -29115.13, -74192.95, -69089.04, -32070.95, -59156.91, 0.00, 0.00, 0.00
211, -59130.11, -50631.50, -75763.83, -165962.33, -40430.97, -76211.13, -108586.80, -52138.37, -48186.96, -54796.42, -26985.66, -29115.13, -74192.95, -69089.04, -32070.95, -59156.91, 0.00, 0.00, 0.00
212, -59130.11, -50631.50, -75763.83, -165962.33, -40430.97, -76211.13, -108586.80, -52138.37, -48111.82, -54861.08, -27134.66, -29299.13, -74153.79, -69052.70, -32108.97, -59270.21, 0.00, 0.00, 0.00
213, -59199.00, -50698.34, -75776.03, -166047.58, -40429.57, -76170.63, -108639.71, -52120.73, -48111.82, -54861.08, -27134.66, -29299.13, -74153.79, -69052.70, -32108.97, -59270.21, 0.00, 0.00, 0.00
214, -59199.00, -50698.34, -75776.03, -166047.58, -40429.57, -76170.63, -108639.71, -52120.73, -48164.43, -54836.11, -27143.98, -29312.57, -74167.49, -69069.99, -32061.92, -59157.42, 0.00, 0.00, 0.00
215, -59093.56, -50591.25, -75802.66, -166146.23, -40423.51, -76183.59, -108566.76, -52121.41, -48164.43, -54836.11, -27143.98, -29312.57, -74167.49, -69069.99, -32061.92, -59157.42, 0.00, 0.00, 0.00
216, -59093.56, -50591.25, -75802.66, -166146.23, -40423.51, -76183.59, -108566.76, -52121.41, -48049.01, -54852.86, -27249.46, -29464.38, -74120.05, -69013.06, -32091.02, -59276.27, 0.00, 0.00, 0.00
217, -59127.11, -50624.53, -75842.20, -166248.09, -40355.76, -76149.15, -108586.85, -52110.86, -48049.01, -54852.86, -27249.46, -29464.38, -74120.05, -69013.06, -32091.02, -59276.27, 0.00, 0.00, 0.00
218, -59127.11, -50624.53, -75842.20, -166248.09, -40355.76, -76149.15, -108586.85, -52110.86, -48117.96, -54782.98, -27205.49, -29430.56, -74105.20, -69016.17, -32021.49, -59167.50, 0.00, 0.00, 0.00
219, -59050.25, -50550.30, -75843.31, -166335.58, -40349.19, -76142.31, -108521.90, -52101.58, -48117.96, -54782.98, -27205.49, -29430.56, -74105.20, -69016.17, -32021.49, -59167.50, 0.83, -0.05, 0.49
220, -59050.25, -50550.30, -75843.31, -166335.58, -40349.19, -76142.31, -108521.90, -52101.58, -48000.44, -54778.00, -27265.86, -29537.87, -74063.71, -68963.87, -32055.64, -59282.43, 0.00, 0.00, 0.00
221, -59081.70, -50580.50, -75906.99, -166450.00, -40318.95, -76133.17, -108535.35, -52102.50, -48000.44, -54778.00, -27265.86, -29537.87, -74063.71, -68963.87, -32055.64, -59282.43, 0.00, 0.00, 0.00
222, -59081.70, -50580.50, -75906.99, -166450.00, -40318.95, -76133.17, -108535.35, -52102.50, -48101.46, -54713.92, -27202.85, -29493.46, -74077.79, -68964.34, -31997.97, -59180.38, 0.00, 0.00, 0.00
223, -59051.86, -50550.50, -75882.47, -166518.52, -40352.39, -76113.01, -108522.01, -52084.55, -48101.46, -54713.92, -27202.85, -29493.46, -74077.79, -68964.34, -31997.97, -59180.38, 0.00, 0.00, 0.00
224, -59051.86, -50550.50, -75882.47, -166518.52, -40352.39, -76113.01, -108522.01, -52084.55, -47988.95, -54737.63, -27261.10, -29595.52, -74062.32, -68942.77, -32035.59, -59275.80, 0.00, 0.00, 0.00
225, -59067.75, -50563.45, -75955.25, -166633.03, -40333.30, -76136.66, -108548.98, -52096.30, -47988.95, -54737.63, -27261.10, -29595.52, -74062.32, -68942.77, -32035.59, -59275.80, 0.00, 0.00, 0.00
226, -59067.75, -50563.45, -75955.25, -166633.03, -40333.30, -76136.66, -108548.98, -52096.30, -48116.42, -54706.14, -27225.50, -29577.75, -74092.05, -68973.62, -31999.76, -59191.71, 0.00, 0.00, 0.00
227, -59093.43, -50591.50, -75906.92, -166683.69, -40388.77, -76116.78, -108570.22, -52081.11, -48116.42, -54706.14, -27225.50, -29577.75, -74092.05, -68973.62, -31999.76, -59191.71, 0.00, 0.00, 0.00
228, -59093.43, -50591.50, -75906.92, -166683.69, -40388.77, -76116.78, -108570.22, -52081.11, -48028.29, -54742.73, -27281.53, -29673.79, -74094.51, -68992.37, -32059.22, -59274.03, 0.00, 0.00, 0.00
229, -59097.14, -50594.76, -75990.52, -166796.09, -40374.25, -76174.81, -108568.23, -52099.41, -48028.29, -54742.73, -27281.53, -29673.79, -74094.51, -68992.37, -32059.22, -59274.03, 0.83, -0.04, 0.48
230, -59097.14, -50594.76, -75990.52, -166796.09, -40374.25, -76174.81, -108568.23, -52099.41, -48166.33, -54711.86, -27242.75, -29653.34, -74099.45, -69010.25, -32027.08, -59195.73, 0.00, 0.00, 0.00
231, -59161.45, -50653.75, -75915.24, -166821.95, -40429.81, -76142.71, -108628.63, -52072.21, -48166.33, -54711.86, -27242.75, -29653.34, -74099.45, -69010.25, -32027.08, -59195.73, 0.00, 0.00, 0.00
232, -59161.45, -50653.75, -75915.24, -166821.95, -40429.81, -76142.71, -108628.63, -52072.21, -48098.45, -54741.88, -27264.84, -29701.76, -74124.66, -69024.02, -32069.97, -59221.70, 0.00, 0.00, 0.00
233, -59159.70, -50651.53, -75996.35, -166918.22, -40416.47, -76219.45, -108612.42, -52090.14, -48098.45, -54741.88, -27264.84, -29701.76, -74124.66, -69024.02, -32069.97, -59221.70, 0.00, 0.00, 0.00
234, -59159.70, -50651.53, -75996.35, -166918.22, -40416.47, -76219.45, -108612.42, -52090.14, -48241.61, -54723.82, -27215.66, -29664.12, -74150.81, -69037.18, -32042.61, -59137.62, 0.00, 0.00, 0.00
235, -59263.55, -50760.09, -75892.33, -166915.88, -40486.05, -76180.66, -108723.11, -52057.57, -48241.61, -54723.82, -27215.66, -29664.12, -74150.81, -69037.18, -32042.61, -59137.62, 0.00, 0.00, 0.00
236, -59263.55, -50760.09, -75892.33, -166915.88, -40486.05, -76180.66, -108723.11, -52057.57, -48197.98, -54758.69, -27199.52, -29659.24, -74198.38, -69090.00, -32081.53, -59109.41, 0.00, 0.00, 0.00
237, -59240.59, -50738.21, -75957.26, -166992.97, -40493.00, -76271.13, -108698.36, -52069.86, -48197.98, -54758.69, -27199.52, -29659.24, -74198.38, -69090.00, -32081.53, -59109.41, 0.00, 0.00, 0.00
238, -59240.59, -50738.21, -75957.26, -166992.97, -40493.00, -76271.13, -108698.36, -52069.86, -48325.81, -54759.05, -27157.86, -29621.80, -74231.17, -69118.07, -32076.41, -59034.80, 0.00, 0.00, 0.00
239, -59372.85, -50872.59, -75834.64, -166968.06, -40586.61, -76233.35, -108840.63, -52031.02, -48325.81, -54759.05, -27157.86, -29621.80, -74231.17, -69118.07, -32076.41, -59034.80, 0.84, -0.04, 0.48
240, -59372.85, -50872.59, -75834.64, -166968.06, -40586.61, -76233.35, -108840.63, -52031.02, -48322.77, -54800.17, -27129.94, -29592.39, -74310.77, -69211.10, -32131.06, -58965.55, 0.00, 0.00, 0.00
241, -59361.27, -50852.34, -75883.70, -167029.27, -40621.21, -76336.99, -108829.39, -52056.12, -48322.77, -54800.17, -27129.94, -29592.39, -74310.77, -69211.10, -32131.06, -58965.55, 0.00, 0.00, 0.00
242, -59361.27, -50852.34, -75883.70, -167029.27, -40621.21, -76336.99, -108829.39, -52056.12, -48463.14, -54828.56, -27110.18, -29579.38, -74364.52, -69263.20, -32163.42, -58900.33, 0.00, 0.00, 0.00
243, -59527.61, -51018.59, -75739.89, -166989.66, -40722.08, -76297.34, -108998.66, -52024.02, -48463.14, -54828.56, -27110.18, -29579.38, -74364.52, -69263.20, -32163.42, -58900.33, 0.00, 0.00, 0.00
244, -59527.61, -51018.59, -75739.89, -166989.66, -40722.08, -76297.34, -108998.66, -52024.02, -48493.92, -54872.95, -27074.73, -29530.43, -74453.28, -69357.62, -32213.33, -58777.62, 0.00, 0.00, 0.00
245, -59505.89, -51000.93, -75753.84, -167029.02, -40753.20, -76403.94, -108973.69, -52044.80, -48493.92, -54872.95, -27074.73, -29530.43, -74453.28, -69357.62, -32213.33, -58777.62, 0.00, 0.00, 0.00
246, -59505.89, -51000.93, -75753.84, -167029.02, -40753.20, -76403.94, -108973.69, -52044.80, -48596.13, -54923.66, -27078.89, -29530.52, -74492.51, -69388.75, -32257.79, -58721.16, 0.00, 0.00, 0.00
247, -59664.29, -51154.89, -75601.47, -166980.02, -40825.73, -76354.83, -109114.40, -52009.98, -48596.13, -54923.66, -27078.89, -29530.52, -74492.51, -69388.75, -32257.79, -58721.16, 0.00, 0.00, 0.00
248, -59664.29, -51154.89, -75601.47, -166980.02, -40825.73, -76354.83, -109114.40, -52009.98, -48629.21, -54959.25, -27033.18, -29457.27, -74575.52, -69484.95, -32299.28, -58570.42, 0.00, 0.00, 0.00
249, -59598.80, -51090.81, -75605.84, -167010.53, -40836.75, -76452.09, -109051.32, -52031.84, -48629.21, -54959.25, -27033.18, -29457.27, -74575.52, -69484.95, -32299.28, -58570.42, 0.84, -0.05, 0.48
250, -59598.80, -51090.81, -75605.84, -167010.53, -40836.75, -76452.09, -109051.32, -52031.84, -48659.41, -55006.32, -27054.01, -29472.61, -74579.43, -69493.67, -32346.39, -58544.65, 0.00, 0.00, 0.00
251, -59734.50, -51226.13, -75474.82, -166970.08, -40891.46, -76415.49, -109191.66, -52011.88, -48659.41, -55006.32, -27054.01, -29472.61, -74579.43, -69493.67, -32346.39, -58544.65, 0.00, 0.00, 0.00
252, -59734.50, -51226.13, -75474.82, -166970.08, -40891.46, -76415.49, -109191.66, -52011.88, -48706.06, -55026.30, -26998.07, -29379.18, -74631.31, -69565.55, -32359.49, -58377.55, 0.00, 0.00, 0.00
253, -59656.38, -51146.00, -75470.13, -167005.28, -40909.12, -76513.21, -109111.31, -52045.07, -48706.06, -55026.30, -26998.07, -29379.18, -74631.31, -69565.55, -32359.49, -58377.55, 0.00, 0.00, 0.00
254, -59656.38, -51146.00, -75470.13, -167005.28, -40909.12, -76513.21, -109111.31, -52045.07, -48702.15, -55081.13, -27041.90, -29418.72, -74607.70, -69545.28, -32409.96, -58389.88, 0.00, 0.00, 0.00
255, -59774.11, -51256.71, -75371.06, -166994.02, -40954.65, -76477.66, -109216.81, -52039.06, -48702.15, -55081.13, -27041.90, -29418.72, -74607.70, -69545.28, -32409.96, -58389.88, 0.00, 0.00, 0.00
0, -59774.11, -51256.71, -75371.06, -166994.02, -40954.65, -76477.66, -109216.81, -52039.06, -48756.98, -55087.57, -26992.10, -29330.32, -74635.49, -69607.91, -32407.70, -58226.80, 0.00, 0.00, 0.00
1, -59692.10, -51182.52, -75353.63, -167029.34, -40965.00, -76547.26, -109143.66, -52069.23, -48756.98, -55087.57, -26992.10, -29330.32, -74635.49, -69607.91, -32407.70, -58226.80, 0.00, 0.00, 0.00
2, -59692.10, -51182.52, -75353.63, -167029.34, -40965.00, -76547.26, -109143.66, -52069.23, -48714.29, -55132.81, -27053.59, -29389.39, -74595.16, -69579.16, -32461.64, -58272.47, 0.00, 0.00, 0.00
3, -59783.83, -51272.80, -75279.53, -167041.63, -40965.40, -76523.25, -109218.80, -52079.70, -48714.29, -55132.81, -27053.59, -29389.39, -74595.16, -69579.16, -32461.64, -58272.47, 0.84, -0.05, 0.48
4, -59783.83, -51272.80, -75279.53, -167041.63, -40965.40, -76523.25, -109218.80, -52079.70, -48776.38, -55127.80, -27011.08, -29306.31, -74626.21, -69629.99, -32449.10, -58123.77, 0.00, 0.00, 0.00
5, -59719.12, -51216.23, -75245.47, -167084.06, -40967.57, -76550.30, -109167.37, -52116.91, -48776.38, -55127.80, -27011.08, -29306.31, -74626.21, -69629.99, -32449.10, -58123.77, 0.00, 0.00, 0.00
6, -59719.12, -51216.23, -75245.47, -167084.06, -40967.57, -76550.30, -109167.37, -52116.91, -48720.09, -55184.89, -27071.69, -29367.38, -74607.84, -69617.84, -32498.72, -58184.32, 0.00, 0.00, 0.00
7, -59813.63, -51312.92, -75180.98, -167106.22, -40974.57, -76496.25, -109253.13, -52130.03, -48720.09, -55184.89, -27071.69, -29367.38, -74607.84, -69617.84, -32498.72, -58184.32, 0.00, 0.00, 0.00
8, -59813.63, -51312.92, -75180.98, -167106.22, -40974.57, -76496.25, -109253.13, -52130.03, -48822.69, -55170.16, -27003.21, -29258.03, -74645.13, -69675.91, -32461.91, -58013.35, 0.00, 0.00, 0.00
9, -59773.95, -51268.84, -75099.00, -167121.19, -41000.27, -76484.80, -109218.82, -52148.12, -48822.69, -55170.16, -27003.21, -29258.03, -74645.13, -69675.91, -32461.91, -58013.35, 0.00, 0.00, 0.00
10, -59773.95, -51268.84, -75099.00, -167121.19, -41000.27, -76484.80, -109218.82, -52148.12, -48755.12, -55214.66, -27048.81, -29295.04, -74642.38, -69655.92, -32510.05, -58054.25, 0.00, 0.00, 0.00
11, -59839.93, -51331.45, -75051.23, -167153.25, -40981.77, -76454.23, -109280.87, -52176.88, -48755.12, -55214.66, -27048.81, -29295.04, -74642.38, -69655.92, -32510.05, -58054.25, 0.00, 0.00, 0.00
12, -59839.93, -51331.45, -75051.23, -167153.25, -40981.77, -76454.23, -109280.87, -52176.88, -48860.66, -55188.04, -26975.52, -29179.44, -74685.60, -69696.76, -32468.46, -57881.65, 0.00, 0.00, 0.00
13, -59812.59, -51313.08, -74950.67, -167163.14, -41034.88, -76433.60, -109262.21, -52197.60, -48860.66, -55188.04, -26975.52, -29179.44, -74685.60, -69696.76, -32468.46, -57881.65, 0.84, -0.05, 0.48
14, -59812.59, -51313.08, -74950.67, -167163.14, -41034.88, -76433.60, -109262.21, -52197.60, -48775.39, -55228.12, -27011.17, -29207.61, -74680.59, -69697.30, -32516.69, -57903.00, 0.00, 0.00, 0.00
15, -59854.39, -51357.58, -74913.12, -167196.16, -41020.70, -76421.05, -109295.55, -52223.48, -48775.39, -55228.12, -27011.17, -29207.61, -74680.59, -69697.30, -32516.69, -57903.00, 0.00, 0.00, 0.00
16, -59854.39, -51357.58, -74913.12, -167196.16, -41020.70, -76421.05, -109295.55, -52223.48, -48901.43, -55208.27, -26932.33, -29087.24, -74717.48, -69731.43, -32462.24, -57695.30, 0.00, 0.00, 0.00
17, -59880.43, -51380.09, -74765.09, -167176.53, -41072.16, -76378.32, -109332.75, -52222.01, -48901.43, -55208.27, -26932.33, -29087.24, -74717.48, -69731.43, -32462.24, -57695.30, 0.00, 0.00, 0.00
18, -59880.43, -51380.09, -74765.09, -167176.53, -41072.16, -76378.32, -109332.75, -52222.01, -48835.68, -55270.23, -26972.25, -29104.83, -74740.16, -69758.27, -32508.00, -57657.71, 0.00, 0.00, 0.00
19, -59922.23, -51421.04, -74723.45, -167213.75, -41067.29, -76396.70, -109362.77, -52250.24, -48835.68, -55270.23, -26972.25, -29104.83, -74740.16, -69758.27, -32508.00, -57657.71, 0.00, 0.00, 0.00
20, -59922.23, -51421.04, -74723.45, -167213.75, -41067.29, -76396.70, -109362.77, -52250.24, -48985.05, -55273.87, -26928.29, -29012.68, -74797.07, -69806.41, -32465.84, -57432.22, 0.00, 0.00, 0.00
21, -59984.14, -51482.52, -74534.44, -167178.66, -41128.21, -76342.16, -109432.51, -52243.00, -48985.05, -55273.87, -26928.29, -29012.68, -74797.07, -69806.41, -32465.84, -57432.22, 0.00, 0.00, 0.00
22, -59984.14, -51482.52, -74534.44, -167178.66, -41128.21, -76342.16, -109432.51, -52243.00, -48935.39, -55347.57, -26976.21, -29024.66, -74859.05, -69863.75, -32518.95, -57337.21, 0.00, 0.00, 0.00
23, -60013.58, -51511.54, -74479.14, -167208.36, -41100.45, -76376.29, -109459.38, -52269.48, -48935.39, -55347.57, -26976.21, -29024.66, -74859.05, -69863.75, -32518.95, -57337.21, 0.84, -0.05, 0.49
24, -60013.58, -51511.54, -74479.14, -167208.36, -41100.45, -76376.29, -109459.38, -52269.48, -49090.98, -55365.29, -26946.03, -28942.69, -74919.91, -69914.80, -32498.54, -57105.26, 0.00, 0.00, 0.00
25, -60104.42, -51608.88, -74258.95, -167151.14, -41160.31, -76324.66, -109544.78, -52246.87, -49090.98, -55365.29, -26946.03, -28942.69, -74919.91, -69914.80, -32498.54, -57105.26, 0.00, 0.00, 0.00
26, -60104.42, -51608.88, -74258.95, -167151.14, -41160.31, -76324.66, -109544.78, -52246.87, -49048.40, -55431.56, -26971.27, -28929.10, -74962.18, -69964.47, -32561.21, -56984.54, 0.00, 0.00, 0.00
27, -60106.19, -51612.79, -74214.88, -167179.48, -41166.08, -76410.48, -109548.13, -52277.93, -49048.40, -55431.56, -26971.27, -28929.10, -74962.18, -69964.47, -32561.21, -56984.54, 0.00, 0.00, 0.00
28, -60106.19, -51612.79, -74214.88, -167179.48, -41166.08, -76410.48, -109548.13, -52277.93, -49196.97, -55448.17, -26949.07, -28857.02, -74999.09, -70001.08, -32564.05, -56783.89, 0.00, 0.00, 0.00
29, -60237.86, -51745.14, -73988.38, -167112.36, -41283.07, -76353.16, -109680.25, -52249.48, -49196.97, -55448.17, -26949.07, -28857.02, -74999.09, -70001.08, -32564.05, -56783.89, 0.00, 0.00, 0.00
30, -60237.86, -51745.14, -73988.38, -167112.36, -41283.07, -76353.16, -109680.25, -52249.48, -49188.30, -55507.07, -26945.07, -28801.63, -75071.86, -70085.34, -32626.17, -56612.86, 0.00, 0.00, 0.00
31, -60243.94, -51748.80, -73931.45, -167132.50, -41315.21, -76414.80, -109686.89, -52277.04, -49188.30, -55507.07, -26945.07, -28801.63, -75071.86, -70085.34, -32626.17, -56612.86, 0.00, 0.00, 0.00
32, -60243.94, -51748.80, -73931.45, -167132.50, -41315.21, -76414.80, -109686.89, -52277.04, -49340.40, -55533.53, -26914.54, -28722.10, -75127.74, -70137.73, -32635.80, -56394.52, 0.00, 0.00, 0.00
33, -60356.91, -51857.14, -73701.43, -167073.41, -41396.75, -76320.54, -109805.42, -52188.48, -49340.40, -55533.53, -26914.54, -28722.10, -75127.74, -70137.73, -32635.80, -56394.52, 0.84, -0.05, 0.49
34, -60356.91, -51857.14, -73701.43, -167073.41, -41396.75, -76320.54, -109805.42, -52188.48, -49199.68, -55571.82, -26920.69, -28673.38, -75139.79, -70160.18, -32649.93, -56024.54, 0.00, 0.00, 0.00
35, -60146.87, -51649.11, -73727.80, -167188.25, -41267.67, -76366.52, -109593.73, -52126.79, -49199.68, -55571.82, -26920.69, -28673.38, -75139.79, -70160.18, -32649.93, -56024.54, 0.00, 0.00, 0.00
36, -60146.87, -51649.11, -73727.80, -167188.25, -41267.67, -76366.52, -109593.73, -52126.79, -49186.66, -55573.79, -26978.51, -28693.65, -75066.54, -70069.34, -32660.52, -55971.58, 0.00, 0.00, 0.00
37, -60145.97, -51646.39, -73603.20, -167215.83, -41260.74, -76291.91, -109594.29, -52256.07, -49186.66, -55573.79, -26978.51, -28693.65, -75066.54, -70069.34, -32660.52, -55971.58, 0.00, 0.00, 0.00
38, -60145.97, -51646.39, -73603.20, -167215.83, -41260.74, -76291.91, -109594.29, -52256.07, -48991.27, -55557.85, -27043.96, -28699.82, -75003.96, -69992.72, -32695.75, -56021.34, 0.00, 0.00, 0.00
39, -59960.18, -51464.22, -73671.57, -167345.20, -41133.96, -76335.52, -109396.38, -52355.94, -48991.27, -55557.85, -27043.96, -28699.82, -75003.96, -69992.72, -32695.75, -56021.34, 0.00, 0.00, 0.00
40, -59960.18, -51464.22, -73671.57, -167345.20, -41133.96, -76335.52, -109396.38, -52355.94, -49083.22, -55529.98, -27098.20, -28727.51, -74939.52, -69932.26, -32674.56, -56074.04, 0.00, 0.00, 0.00
41, -60217.18, -51721.15, -73509.41, -167322.53, -41238.07, -76241.48, -109650.62, -52358.49, -49083.22, -55529.98, -27098.20, -28727.51, -74939.52, -69932.26, -32674.56, -56074.04, 0.00, 0.00, 0.00
42, -60217.18, -51721.15, -73509.41, -167322.53, -41238.07, -76241.48, -109650.62, -52358.49, -49214.76, -55523.83, -27038.77, -28618.68, -75053.02, -70081.59, -32649.93, -55823.08, 0.00, 0.00, 0.00
43, -60173.62, -51675.22, -73466.83, -167365.00, -41294.87, -76311.87, -109612.80, -52283.48, -49214.76, -55523.83, -27038.77, -28618.68, -75053.02, -70081.59, -32649.93, -55823.08, 0.83, -0.06, 0.48
44, -60173.62, -51675.22, -73466.83, -167365.00, -41294.87, -76311.87, -109612.80, -52283.48, -49198.42, -55558.10, -27071.47, -28628.49, -75039.74, -70075.58, -32645.97, -55590.80, 0.00, 0.00, 0.00
45, -60292.71, -51792.54, -73327.73, -167373.08, -41312.91, -76270.81, -109735.51, -52231.87, -49198.42, -55558.10, -27071.47, -28628.49, -75039.74, -70075.58, -32645.97, -55590.80, 0.00, 0.00, 0.00
46, -60292.71, -51792.54, -73327.73, -167373.08, -41312.91, -76270.81, -109735.51, -52231.87, -49276.77, -55562.61, -27021.34, -28525.54, -75109.73, -70149.14, -32643.74, -55357.47, 0.00, 0.00, 0.00
47, -60228.23, -51734.38, -73279.72, -167409.33, -41352.36, -76386.10, -109677.88, -52313.05, -49276.77, -55562.61, -27021.34, -28525.54, -75109.73, -70149.14, -32643.74, -55357.47, 0.00, 0.00, 0.00
48, -60228.23, -51734.38, -73279.72, -167409.33, -41352.36, -76386.10, -109677.88, -52313.05, -49248.27, -55602.62, -27072.90, -28548.07, -75107.71, -70132.58, -32721.77, -55413.46, 0.00, 0.00, 0.00
49, -60251.81, -51758.59, -73178.02, -167410.31, -41358.62, -76392.85, -109693.38, -52344.41, -49248.27, -55602.62, -27072.90, -28548.07, -75107.71, -70132.58, -32721.77, -55413.46, 0.00, 0.00, 0.00
50, -60251.81, -51758.59, -73178.02, -167410.31, -41358.62, -76392.85, -109693.38, -52344.41, -49231.26, -55580.29, -27051.33, -28472.10, -75092.59, -70123.70, -32712.58, -55232.43, 0.00, 0.00, 0.00
51, -60240.05, -51745.67, -73144.94, -167448.72, -41353.14, -76469.05, -109686.53, -52392.75, -49231.26, -55580.29, -27051.33, -28472.10, -75092.59, -70123.70, -32712.58, -55232.43, 0.00, 0.00, 0.00
52, -60240.05, -51745.67, -73144.94, -167448.72, -41353.14, -76469.05, -109686.53, -52392.75, -49316.71, -55623.39, -27090.63, -28491.59, -75132.50, -70162.99, -32749.53, -55191.95, 0.00, 0.00, 0.00
53, -60418.48, -51919.37, -73034.48, -167431.91, -41450.53, -76474.44, -109868.61, -52331.85, -49316.71, -55623.39, -27090.63, -28491.59, -75132.50, -70162.99, -32749.53, -55191.95, 0.83, -0.06, 0.49
54, -60418.48, -51919.37, -73034.48, -167431.91, -41450.53, -76474.44, -109868.61, -52331.85, -49451.36, -55622.14, -27007.50, -28353.32, -75225.11, -70282.42, -32727.31, -54850.31, 0.00, 0.00, 0.00
55, -60401.41, -51902.89, -72949.14, -167417.89, -41503.75, -76564.98, -109873.53, -52322.14, -49451.36, -55622.14, -27007.50, -28353.32, -75225.11, -70282.42, -32727.31, -54850.31, 0.00, 0.00, 0.00
56, -60401.41, -51902.89, -72949.14, -167417.89, -41503.75, -76564.98, -109873.53, -52322.14, -49404.91, -55692.75, -27051.78, -28371.69, -75241.65, -70298.11, -32802.64, -54756.50, 0.00, 0.00, 0.00
57, -60475.32, -51974.75, -72883.91, -167416.53, -41496.17, -76593.95, -109927.41, -52301.34, -49404.91, -55692.75, -27051.78, -28371.69, -75241.65, -70298.11, -32802.64, -54756.50, 0.00, 0.00, 0.00
58, -60475.32, -51974.75, -72883.91, -167416.53, -41496.17, -76593.95, -109927.41, -52301.34, -49528.51, -55680.43, -26987.47, -28242.88, -75293.05, -70337.14, -32787.26, -54494.67, 0.00, 0.00, 0.00
59, -60487.71, -51980.21, -72786.87, -167386.55, -41553.59, -76662.66, -109926.79, -52334.28, -49528.51, -55680.43, -26987.47, -28242.88, -75293.05, -70337.14, -32787.26, -54494.67, 0.00, 0.00, 0.00
60, -60487.71, -51980.21, -72786.87, -167386.55, -41553.59, -76662.66, -109926.79, -52334.28, -49503.30, -55739.01, -27033.27, -28257.19, -75319.84, -70362.59, -32891.64, -54499.77, 0.00, 0.00, 0.00
61, -60534.40, -52013.31, -72757.74, -167384.20, -41587.50, -76740.35, -109968.95, -52341.70, -49503.30, -55739.01, -27033.27, -28257.19, -75319.84, -70362.59, -32891.64, -54499.77, 0.00, 0.00, 0.00
62, -60534.40, -52013.31, -72757.74, -167384.20, -41587.50, -76740.35, -109968.95, -52341.70, -49595.79, -55731.66, -26989.48, -28148.04, -75349.31, -70396.68, -32892.71, -54277.95, 0.00, 0.00, 0.00
63, -60524.86, -51997.24, -72664.31, -167353.88, -41626.95, -76771.27, -109975.95, -52381.36, -49595.79, -55731.66, -26989.48, -28148.04, -75349.31, -70396.68, -32892.71, -54277.95, 0.83, -0.05, 0.48
64, -60524.86, -51997.24, -72664.31, -167353.88, -41626.95, -76771.27, -109975.95, -52381.36, -49500.73, -55796.23, -27052.88, -28178.04, -75360.36, -70398.09, -32982.37, -54308.97, 0.00, 0.00, 0.00
65, -60523.14, -52000.24, -72672.13, -167376.92, -41602.25, -76834.97, -109966.55, -52430.69, -49500.73, -55796.23, -27052.88, -28178.04, -75360.36, -70398.09, -32982.37, -54308.97, 0.00, 0.00, 0.00
66, -60523.14, -52000.24, -72672.13, -167376.92, -41602.25, -76834.97, -109966.55, -52430.69, -49567.03, -55772.90, -27019.95, -28089.93, -75361.72, -70384.21, -32971.95, -54145.56, 0.00, 0.00, 0.00
67, -60486.10, -51965.23, -72583.24, -167355.81, -41606.27, -76825.60, -109939.94, -52435.69, -49567.03, -55772.90, -27019.95, -28089.93, -75361.72, -70384.21, -32971.95, -54145.56, 0.00, 0.00, 0.00
68, -60486.10, -51965.23, -72583.24, -167355.81, -41606.27, -76825.60, -109939.94, -52435.69, -49504.95, -55809.40, -27079.05, -28116.10, -75358.77, -70369.46, -33052.89, -54239.21, 0.00, 0.00, 0.00
69, -60527.25, -52003.32, -72611.43, -167375.59, -41647.00, -76902.52, -109971.63, -52509.27, -49504.95, -55809.40, -27079.05, -28116.10, -75358.77, -70369.46, -33052.89, -54239.21, 0.00, 0.00, 0.00
70, -60527.25, -52003.32, -72611.43, -167375.59, -41647.00, -76902.52, -109971.63, -52509.27, -49548.74, -55785.23, -27062.91, -28043.06, -75360.05, -70375.25, -33045.51, -54090.17, 0.00, 0.00, 0.00
71, -60456.71, -51930.28, -72553.11, -167368.09, -41639.96, -76882.00, -109913.13, -52456.48, -49548.74, -55785.23, -27062.91, -28043.06, -75360.05, -70375.25, -33045.51, -54090.17, 0.00, 0.00, 0.00
72, -60456.71, -51930.28, -72553.11, -167368.09, -41639.96, -76882.00, -109913.13, -52456.48, -49443.64, -55807.01, -27136.20, -28086.78, -75339.32, -70339.04, -33110.60, -54187.18, 0.00, 0.00, 0.00
73, -60452.75, -51920.75, -72639.13, -167411.66, -41619.04, -76954.04, -109899.50, -52533.97, -49443.64, -55807.01, -27136.20, -28086.78, -75339.32, -70339.04, -33110.60, -54187.18, 0.83, -0.05, 0.48
74, -60452.75, -51920.75, -72639.13, -167411.66, -41619.04, -76954.04, -109899.50, -52533.97, -49529.96, -55775.36, -27132.07, -28045.83, -75329.51, -70340.38, -33092.94, -54150.21, 0.00, 0.00, 0.00
75, -60497.45, -51967.54, -72563.59, -167378.27, -41657.97, -76913.42, -109943.20, -52529.23, -49529.96, -55775.36, -27132.07, -28045.83, -75329.51, -70340.38, -33092.94, -54150.21, 0.00, 0.00, 0.00
76, -60497.45, -51967.54, -72563.59, -167378.27, -41657.97, -76913.42, -109943.20, -52529.23, -49458.08, -55795.68, -27169.53, -28056.67, -75335.41, -70363.42, -33128.39, -54208.07, 0.00, 0.00, 0.00
77, -60422.15, -51893.26, -72664.73, -167430.61, -41618.52, -77002.54, -109861.55, -52555.03, -49458.08, -55795.68, -27169.53, -28056.67, -75335.41, -70363.42, -33128.39, -54208.07, 0.00, 0.00, 0.00
78, -60422.15, -51893.26, -72664.73, -167430.61, -41618.52, -77002.54, -109861.55, -52555.03, -49490.02, -55777.99, -27188.82, -28048.06, -75300.05, -70330.97, -33111.34, -54188.05, 0.00, 0.00, 0.00
79, -60447.65, -51922.56, -72609.66, -167413.64, -41642.15, -76973.21, -109893.45, -52542.36, -49490.02, -55777.99, -27188.82, -28048.06, -75300.05, -70330.97, -33111.34, -54188.05, 0.00, 0.00, 0.00
80, -60447.65, -51922.56, -72609.66, -167413.64, -41642.15, -76973.21, -109893.45, -52542.36, -49401.85, -55788.68, -27225.01, -28063.58, -75282.82, -70319.75, -33133.89, -54242.90, 0.00, 0.00, 0.00
81, -60343.65, -51822.43, -72730.25, -167476.25, -41587.30, -77086.83, -109799.27, -52602.17, -49401.85, -55788.68, -27225.01, -28063.58, -75282.82, -70319.75, -33133.89, -54242.90, 0.00, 0.00, 0.00
82, -60343.65, -51822.43, -72730.25, -167476.25, -41587.30, -77086.83, -109799.27, -52602.17, -49392.21, -55768.83, -27265.48, -28092.39, -75207.63, -70255.22, -33116.28, -54311.99, 0.00, 0.00, 0.00
83, -60358.94, -51837.98, -72701.44, -167470.00, -41550.02, -77056.05, -109810.05, -52643.77, -49392.21, -55768.83, -27265.48, -28092.39, -75207.63, -70255.22, -33116.28, -54311.99, 0.83, -0.05, 0.48
84, -60358.94, -51837.98, -72701.44, -167470.00, -41550.02, -77056.05, -109810.05, -52643.77, -49272.70, -55754.01, -27311.19, -28117.98, -75174.03, -70225.91, -33136.41, -54452.89, 0.00, 0.00, 0.00
